pressure[Pa]
0
0
0
0
0
0
0
0
0
0
0
0
0
0
0
0
0
0
0
0
0
0
0
0
0
0
0
0
0
0
0
0
0
0
0
0
0
0
0
0
0
0
0
0
0
0
0
0
0
0
0
0
0
0
0
0
0
0
0
0
0
0
0
0
0
0
0
0
0
0
0
0
0
0
0
0
0
0
0
0
0
0
0
0
0
0
0
0
0
0
0
0
0
0
0
0
0
0
0
0
0
0
0
0
0
0
0
0
0
0
0
0
0
0
0
0
0
0
0
0
0
0
0
0
0
0
0
0
0
0
0
0
0
0
0
0
0
0
0
0
0
0
0
0
0
0
0
0
0
0
0
0
0
0
0
0
0
0
0
0
0
0
0
0
0
0
0
0
0
0
0
0
0
0
0
0
0
0
0
0
0
0
0
0
0
0
0
0
0
0
0
0
0
0
0
0
0
0
0
0
0
0
0
0
0
0
0
0
0
0
0
0
0
0
0
0
0
0
0
0
0
0
0
0
0
0
0
0
0
0
0
0
0
0
0
0
0
0
0
0
0
0
0
0
0
0
0
0
0
0
0
0
0
0
0
0
0
0
0
0
0
0
0
0
0
0
0
0
0
0
0
0
0
0
0
0
0
0
0
0
0
0
0
0
0
0
0
0
0
0
0
0
0
0
0
0
0
0
0
0
0
0
0
0
0
0
0
0
0
0
0
0
0
0
0
0
0
0
0
0
0
0
0
0
0
0
0
0
0
0
0
0
0
0
0
0
0
0
0
0
0
0
0
0
0
0
0
0
0
0
0
0
0
0
0
0
0
0
0
0
0
0
0
0
0
0
0
0
0
0
0
0
0
0
0
0
0
0
0
0
0
0
0
0
0
0
0
0
0
0
0
0
0
0
0
0
0
0
0
0
0
0
0
0
0
0
0
0
0
0
0
0
0
0
0
0
0
0
0
0
0
0
0
0
0
0
0
0
0
0
0
0
0
0
0
0
0
0
0
0
0
0
0
0
0
0
0
0
0
0
0
0
0
0
0
0
0
0
0
0
0
0
0
0
0
0
0
0
0
0
0
0
0
0
0
0
0
0
0
0
0
0
0
0
0
0
0
0
0
0
0
0
0
0
0
0
0
0
0
0
0
0
0
0
0
0
0
0
0
0
0
0
0
0
0
0
0
0
0
0
0
0
0
0
0
0
0
0
0
0
0
0
0
0
0
0
0
0
0
0
0
0
0
0
0
0
0
0
0
0
0
0
0
0
0
0
0
0
0
0
0
0
0
0
0
0
0
0
0
0
0
0
0
0
0
0
0
0
0
0
0
0
0
0
0
0
0
0
0
0
0
0
0
0
0
0
0
0
0
0
0
0
0
0
0
0
0
0
0
0
0
0
0
0
0
0
0
0
0
0
0
0
0
0
0
0
0
0
0
0
0
0
0
0
0
0
0
0
0
0
0
0
0
0
0
0
0
0
0
0
0
0
0
0
0
0
0
0
0
0
0
0
0
0
0
0
0
0
0
0
0
0
0
0
0
0
0
0
0
0
0
0
0
0
0
0
0
0
0
0
0
0
0
0
0
0
0
0
0
0
0
0
0
0
0
0
0
0
0
0
0
0
0
0
0
0
0
0
0
0
0
0
0
0
0
0
0
0
0
0
0
0
0
0
0
0
0
0
0
0
0
0
0
0
0
0
0
0
0
0
0
0
0
0
0
0
0
0
0
0
0
0
0
0
0
0
0
0
0
0
0
0
0
0
0
0
0
0
0
0
0
0
0
0
0
0
0
0
0
0
0
0
0
0
0
0
0
0
0
0
0
0
0
0
0
0
0
0
0
0
0
0
0
0
0
0
0
0
0
0
0
0
0
0
0
0
0
0
0
0
0
0
0
0
0
0
0
0
0
0
0
0
0
0
0
0
0
0
0
0
0
0
0
0
0
0
0
0
0
0
0
0
0
0
0
0
0
0
0
0
0
0
0
0
0
0
0
0
0
0
0
0
0
0
0
0
0
0
0
0
0
0
0
0
0
0
0
0
0
0
0
0
0
0
0
0
0
0
0
0
0
0
0
0
0
0
0
0
0
0
0
0
0
0
0
0
0
0
0
0
0
0
0
0
0
0
0
0
0
0
0
0
0
0
0
0
0
0
0
0
0
0
0
0
0
0
0
0
0
0
0
0
0
0
0
0
0
0
0
0
0
0
0
0
0
0
0
0
0
0
0
0
0
0
0
0
0
0
0
0
0
0
0
0
0
0
0
0
0
0
0
0
0
0
0
0
0
0
0
0
0
0
0
0
0
0
0
0
0
0
0
0
0
0
0
0
0
0
0
0
0
0
0
0
0
0
0
0
0
0
0
0
0
0
0
0
0
0
0
0
0
0
0
0
0
0
0
0
0
0
0
0
0
0
0
0
0
0
0
0
0
0
0
0
0
0
0
0
0
0
0
0
0
0
0
0
0
0
0
0
0
0
0
0
0
0
0
0
0
0
0
0
0
0
0
0
0
0
0
0
0
0
0
0
0
0
0
0
0
0
0
0
0
0
0
0
0
0
0
0
0
0
0
0
0
0
0
0
0
0
0
0
0
0
0
0
0
0
0
0
0
0
0
0
0
0
0
0
0
0
0
0
0
0
0
0
0
0
0
0
0
0
0
0
0
0
0
0
0
0
0
0
0
0
0
0
0
0
0
0
0
0
0
0
0
0
0
0
0
0
0
0
0
0
0
0
0
0
0
0
0
0
0
0
0
0
0
0
0
0
0
0
0
0
0
0
0
0
0
0
0
0
0
0
0
0
0
0
0
0
0
0
0
0
0
0
0
0
0
0
0
0
0
0
0
0
0
0
0
0
0
0
0
0
0
0
0
0
0
0
0
0
0
0
0
0
0
0
0
0
0
0
0
0
0
0
0
0
0
0
0
0
0
0
0
0
0
0
0
0
0
0
0
0
0
0
0
0
0
0
0
0
0
0
0
0
0
0
0
0
0
0
0
0
0
0
0
0
0
0
0
0
0
0
0
0
0
0
0
0
0
0
0
0
0
0
0
0
0
0
0
0
0
0
0
0
0
0
0
0
0
0
0
0
0
0
0
0
0
0
0
0
0
0
0
0
0
0
0
0
0
0
0
0
0
0
0
0
0
0
0
0
0
0
0
0
0
0
0
0
0
0
0
0
0
0
0
0
0
0
0
0
0
0
0
0
0
0
0
0
0
0
0
0
0
0
0
0
0
0
0
0
0
0
0
0
0
0
0
0
0
0
0
0
0
0
0
0
0
0
13.25
73.25
118.125
161.625
233.75
222.75
157.625
136.625
144
133.125
97
176.75
226.5
144.375
125.75
120.5
127.5
166.875
165.625
85
11.75
0
0
0
0
0
0
0
0
0
0
0
0
0
0
0
0
0
0
0
0
0
0
0
0
0
0
0
0
0
0
0
0
0
0
0
0
0
0
0
0
0
0
0
0
0
0
0
0
0
0
0
0
0
0
0
0
0
0
0
0
0
0
0
0
0
0
0
0
0
0
0
0
0
0
0
0
0
0
0
0
0
0
0
0
0
0
0
0
0
0
0
0
0
0
0
0
0
0
0
0
0
0
0
0
79.625
238.5
353.25
394.875
366.375
384.875
468.5
412.375
291.375
302.5
337.625
315.875
286
372.75
381.75
210.125
182.625
233
272.625
348.375
378.125
323
269.875
263.5
219.25
110.5
23.25
0
0
0
0
0
0
0
0
0
0
0
0
0
0
0
0
0
0
0
0
0
0
0
0
0
0
0
0
0
0
0
0
0
0
0
0
0
0
0
0
0
0
0
0
0
0
0
0
0
0
0
0
0
0
0
0
0
0
0
0
0
0
0
0
0
0
0
0
0
0
0
0
0
0
0
0
0
0
0
0
0
0
0
0
0
0
0
0
0
0
0
0
0
0
0
0
0
0
118.375
359.875
486.375
530.5
580.375
524.75
397.875
344.375
366
331.25
285
357.875
408.625
362.625
334.875
313.75
220.75
97
138.5
265.625
306.875
330.5
343.625
330.25
318
343.125
395.875
384.5
235.375
77.375
16.875
0
0
0
0
0
0
0
0
0
0
0
0
0
0
0
0
0
0
0
0
0
0
0
0
0
0
0
0
0
0
0
0
0
0
0
0
0
0
0
0
0
0
0
0
0
0
0
0
0
0
0
0
0
0
0
0
0
0
0
0
0
0
0
0
0
0
0
0
0
0
0
0
0
0
0
0
0
0
0
0
0
0
0
0
0
0
0
0
0
0
0
0
0
0
0
0
188.125
538.75
550.875
349
323.125
311.75
199.375
141
206.625
319.625
403.125
440.125
495.125
494
404.375
300.375
191.75
108.375
120.625
233.5
323.75
336.125
296
177.5
26.5
19.125
220.375
419.75
366.25
191.875
69.75
4.875
0
0
0
0
0
0
0
0
0
0
0
0
0
0
0
0
0
0
0
0
0
0
0
0
0
0
0
0
0
0
0
0
0
0
0
0
0
0
0
0
0
0
0
0
0
0
0
0
0
0
0
0
0
0
0
0
0
0
0
0
0
0
0
0
0
0
0
0
0
0
0
0
0
0
0
0
0
0
0
0
0
0
0
0
0
0
0
0
0
0
0
0
0
-15.875
-69.75
40.375
254.5
196.125
91.5
193.125
200.375
42.5
-0.75
99.875
256
355.625
331
321.625
329.125
300.125
237.875
157.875
76.375
-46.625
-20.25
178.375
294.5
252.5
133.125
28.75
22.125
138.875
230.625
189.625
114.5
52.875
6.125
1.25
0
0
0
0
0
0
0
0
0
0
0
0
0
0
0
0
0
0
0
0
0
0
0
0
0
0
0
0
0
0
0
0
0
0
0
0
0
0
0
0
0
0
0
0
0
0
0
0
0
0
0
0
0
0
0
0
0
0
0
0
0
0
0
0
0
0
0
0
0
0
0
0
0
0
0
0
0
0
0
0
0
0
0
0
0
0
0
0
0
0
0
-96.375
-179.875
-119
108.375
294.125
215.75
140.5
151.75
91.75
-7.25
-20.625
24.5
78
103.75
82.875
41.5
15
41.625
55.25
31.625
-0.75
-148.125
-196.625
-23
111.5
98.125
43.875
104.375
200.125
236.25
204.125
108.625
69.5
93.625
49.625
3.25
14.625
12.625
0
0
0
0
0
0
0
0
0
0
0
0
0
0
0
0
0
0
0
0
0
0
0
0
0
0
0
0
0
0
0
0
0
0
0
0
0
0
0
0
0
0
0
0
0
0
0
0
0
0
0
0
0
0
0
0
0
0
0
0
0
0
0
0
0
0
0
0
0
0
0
0
0
0
0
0
0
0
0
0
0
0
0
0
0
0
0
-27.875
-146.375
-239.125
-52.5
284.5
512.25
529.375
367.375
182
62.625
42.375
69.5
96
96.5
42.125
0
0
0
0
0
0
0
-36.625
-103
-64.875
18.75
62.625
69.5
22
37.375
100.25
180.5
225
206.25
265.375
316.625
152.25
3.125
49
115.5
74.875
5.25
0
0
0
0
0
0
0
0
0
0
0
0
0
0
0
0
0
0
0
0
0
0
0
0
0
0
0
0
0
0
0
0
0
0
0
0
0
0
0
0
0
0
0
0
0
0
0
0
0
0
0
0
0
0
0
0
0
0
0
0
0
0
0
0
0
0
0
0
0
0
0
0
0
0
0
0
0
0
0
0
0
0
0
8.75
57.875
20.25
-94.875
104.625
530.25
743.875
731.75
639.625
492.125
361.5
381.125
481.125
600.875
764.25
856.375
761.875
330.375
0
0
0
0
0
0
0
199.125
536.75
707.75
775.5
748.5
572.125
355.5
218.625
245
268.375
250.75
349
396.75
233.25
71.125
54.125
135
187.875
134.375
48.25
0
0
0
0
0
0
0
0
0
0
0
0
0
0
0
0
0
0
0
0
0
0
0
0
0
0
0
0
0
0
0
0
0
0
0
0
0
0
0
0
0
0
0
0
0
0
0
0
0
0
0
0
0
0
0
0
0
0
0
0
0
0
0
0
0
0
0
0
0
0
0
0
0
0
0
0
0
0
0
0
0
131.375
320.75
370.625
335.375
359.625
515.375
667.25
736
847.75
1021.12
1144.62
1252.25
1384.5
1470.5
1583.75
1778.5
1885.38
1871.25
1466.75
888.75
394.375
46.125
0
0
245.125
820.875
1416.38
1793.25
1885.38
1837.75
1790.38
1710.88
1541.5
1387.25
1224
826.625
440
340
304.125
228.375
212.5
195.875
178.5
325.625
459.125
353.5
140
17
0
0
0
0
0
0
0
0
0
0
0
0
0
0
0
0
0
0
0
0
0
0
0
0
0
0
0
0
0
0
0
0
0
0
0
0
0
0
0
0
0
0
0
0
0
0
0
0
0
0
0
0
0
0
0
0
0
0
0
0
0
0
0
0
0
0
0
0
0
0
0
0
0
0
0
0
0
33.125
203
498.875
674.5
611.5
554.25
516.5
409.125
528.125
943.625
1396.38
1710.62
1896.62
2050.25
2135.75
2129.5
2150.12
2212.12
2212
2269.38
2385.5
2265.88
1661
642.125
38.875
262.25
1010.62
1959.75
2581.12
2715.38
2499.5
2122.5
2030.25
2272.38
2431.75
2446.62
2329.5
1894.5
1317.75
838.75
456.375
244
291.125
451.75
520.625
563.5
641.5
587.25
303.5
51.875
-3.125
0
0
0
0
0
0
0
0
0
0
0
0
0
0
0
0
0
0
0
0
0
0
0
0
0
0
0
0
0
0
0
0
0
0
0
0
0
0
0
0
0
0
0
0
0
0
0
0
0
0
0
0
0
0
0
0
0
0
0
0
0
0
0
0
0
0
0
0
0
0
0
0
0
0
0
43.25
241.875
571
758.875
663.875
499
438.75
421.25
545.875
973.5
1528.12
1949.25
2105.12
2051.25
2031.75
2027.12
1945.12
1913.12
1997.75
2105.62
2169.75
2282.62
2516.75
2555.5
1740.12
937.75
1146.75
1742.12
2287
2632.88
2649
2340.38
1897.25
1789.12
2045.12
2272.62
2447.12
2529.5
2351
2028.38
1652.62
1200.75
828.875
734
874.375
927.75
733.375
567.625
531.75
351.875
78.375
-15.5
-1.625
0
0
0
0
0
0
0
0
0
0
0
0
0
0
0
0
0
0
0
0
0
0
0
0
0
0
0
0
0
0
0
0
0
0
0
0
0
0
0
0
0
0
0
0
0
0
0
0
0
0
0
0
0
0
0
0
0
0
0
0
0
0
0
0
0
0
0
0
0
0
0
0
0
11.5
156
503.25
775.875
765.125
580.875
487.625
562.25
754.875
1130.75
1558.62
1884.5
2157.12
2243.25
2012
1772.12
1674.12
1552.62
1449.62
1562.5
1794.75
1870.5
1873.38
2130
2442
2328.62
1959.88
1779.88
1852.5
2019.25
2144.75
2128.25
1883.62
1638.62
1637.5
1703.62
1806.5
2099.88
2252.25
2043.75
1925.25
2051.12
2018.25
1733
1538.5
1555.88
1433.12
1005.5
657.375
573.375
477.5
198
24
20.875
5.875
0
0
0
0
0
0
0
0
0
0
0
0
0
0
0
0
0
0
0
0
0
0
0
0
0
0
0
0
0
0
0
0
0
0
0
0
0
0
0
0
0
0
0
0
0
0
0
0
0
0
0
0
0
0
0
0
0
0
0
0
0
0
0
0
0
0
0
0
0
0
0
11.125
68.75
262.375
565.625
740.5
706.5
662.375
938.625
1268.25
1381.12
1525.25
1704.25
1927.88
2144.88
2088.88
1774.75
1527.75
1463.25
1386.12
1220
1197.12
1350.12
1463.5
1602.38
1886
2148.38
2284.25
2143
1865.12
1785.12
1730.25
1629.62
1549.88
1360.5
1278.25
1381.75
1419.88
1516.88
1809.62
1968.38
1785.75
1717.12
2050
2298.62
2142.75
1941.62
1950.38
1915
1505.25
979.5
680.875
582
403.5
174.625
118.75
59.25
0
0
0
0
0
0
0
0
0
0
0
0
0
0
0
0
0
0
0
0
0
0
0
0
0
0
0
0
0
0
0
0
0
0
0
0
0
0
0
0
0
0
0
0
0
0
0
0
0
0
0
0
0
0
0
0
0
0
0
0
0
0
0
0
0
0
0
0
0
0
0
41.125
161.625
355.375
517.125
582.375
717.375
1102.12
1710
1958.5
1720.75
1592.75
1681.5
1861.38
1865.12
1548.5
1323.25
1311.62
1321.5
1270.88
1084.75
945.625
1043
1248
1461.25
1603.38
1813.38
2145.62
2189.88
2017.75
1884.25
1658
1366.88
1125.62
871
786.375
919.5
1130.12
1409.88
1687.25
1820.25
1686.12
1583.5
1864.38
2187.88
2131.62
1944
1957
2124
2009.5
1425.38
797.5
503.25
460
334.875
193
87
0.625
0
0
0
0
0
0
0
0
0
0
0
0
0
0
0
0
0
0
0
0
0
0
0
0
0
0
0
0
0
0
0
0
0
0
0
0
0
0
0
0
0
0
0
0
0
0
0
0
0
0
0
0
0
0
0
0
0
0
0
0
0
0
0
0
0
0
0
0
0
3.5
77.875
274.125
462.125
481.625
598.375
1161
1867.88
2207
2008
1605.12
1539.38
1781
1943.88
1685.38
1147
982.25
1091.75
1080.62
1006
874.25
755.625
875.5
1154
1326.75
1348.62
1600.38
2054
2195.38
2145.62
2062.75
1803.25
1410.38
1017.75
623.375
388.375
493.625
857
1248.75
1523.25
1653.5
1601.25
1582.12
1785.88
2006.25
1960.62
1759.62
1765.88
2090.25
2374.38
2044.62
1228.5
545.875
376.625
404.875
237.875
57.75
-3.125
0
0
0
0
0
0
0
0
0
0
0
0
0
0
0
0
0
0
0
0
0
0
0
0
0
0
0
0
0
0
0
0
0
0
0
0
0
0
0
0
0
0
0
0
0
0
0
0
0
0
0
0
0
0
0
0
0
0
0
0
0
0
0
0
0
0
0
0
0
8.75
156.625
428.75
523.625
578.25
1122.5
1967.25
2350.5
2117.88
1652.88
1344.88
1505
1988.12
2256.75
1926
1219.38
806
755.875
696
627.625
614.375
614
764
1041
1230
1312.38
1587.12
2001.62
2181.75
2236.38
2242.88
2062.38
1718.25
1300.62
805.125
414.75
446.5
757
1056.75
1313
1502.62
1615.88
1828.12
2004.38
1952.5
1728.62
1428.25
1430.88
1863
2476.38
2656.5
2041.88
1071.88
428
347.875
318.25
136.5
30.125
2.375
0
0
0
0
0
0
0
0
0
0
0
0
0
0
0
0
0
0
0
0
0
0
0
0
0
0
0
0
0
0
0
0
0
0
0
0
0
0
0
0
0
0
0
0
0
0
0
0
0
0
0
0
0
0
0
0
0
0
0
0
0
0
0
0
0
0
0
18.625
91.375
291.375
421.875
474.25
978.125
1890.75
2392.62
2191.75
1751.75
1389.12
1286.12
1578.25
2119.88
2460.75
2235.75
1515.88
797.125
469.5
365.125
372.25
472.75
569.375
731.375
957.125
1174
1344.12
1611.62
1999.62
2247.88
2331.25
2289.75
2108.12
1852.5
1528.5
1114.88
722.75
597
695.5
892.375
1212.25
1530.88
1786.5
2097
2170.12
1876.62
1494.12
1210.75
1321.5
1761.12
2378.38
2834.25
2618.75
1834.5
835.375
306.875
340.25
274.625
110.625
26.25
0
0
0
0
0
0
0
0
0
0
0
0
0
0
0
0
0
0
0
0
0
0
0
0
0
0
0
0
0
0
0
0
0
0
0
0
0
0
0
0
0
0
0
0
0
0
0
0
0
0
0
0
0
0
0
0
0
0
0
0
0
0
0
0
0
0
5.625
116.875
284.25
311.125
192.125
540.375
1574
2337.62
2271.25
1818.12
1484.88
1339
1393.88
1647.5
2017.12
2248.5
2117.88
1585.38
863.875
449.875
343.5
374.75
520
666.125
812.25
969.625
1177.5
1393.5
1634
2016.62
2357.12
2457.25
2293.12
1969.25
1642.62
1321.75
1057.75
843
660.375
604.875
789
1192.12
1574.62
1822.5
2018.75
1987.62
1651.12
1316.12
1264.38
1529.38
1813.38
2030.25
2312.75
2482.75
2302
1502.12
589.625
373.75
332.875
147.625
46.375
2.625
0
0
0
0
0
0
0
0
0
0
0
0
0
0
0
0
0
0
0
0
0
0
0
0
0
0
0
0
0
0
0
0
0
0
0
0
0
0
0
0
0
0
0
0
0
0
0
0
0
0
0
0
0
0
0
0
0
0
0
0
0
0
0
0
0
61.375
300.125
426.75
201.25
180.375
1012.5
2113.12
2452.38
2060.62
1593
1381
1346.5
1425.5
1564.38
1686.38
1692.38
1648.5
1401.88
843.25
544.875
540.875
516.875
596.25
751.125
889.75
1037.38
1281.75
1524.5
1710.38
2090.38
2555.12
2748.62
2565.25
2118.88
1594
1072.25
725.75
657.375
638.875
601.625
796.75
1188.25
1547.75
1731.12
1731
1627.5
1405.25
1262.38
1444.75
1735.12
1762.38
1576.5
1639.25
2053.5
2366.62
2078.5
1198.25
576.25
364.75
183.25
91.625
32.625
0
0
0
0
0
0
0
0
0
0
0
0
0
0
0
0
0
0
0
0
0
0
0
0
0
0
0
0
0
0
0
0
0
0
0
0
0
0
0
0
0
0
0
0
0
0
0
0
0
0
0
0
0
0
0
0
0
0
0
0
0
0
0
0
6.75
224.25
526.875
449.625
263.5
735.625
1768.12
2443.62
2355
1809.38
1368.88
1263.38
1314.38
1351.75
1374
1363.38
1274.38
1311.38
1254.88
807.375
586.75
688.625
661.25
664.625
802.875
995.125
1200.75
1425.88
1625.12
1803.88
2204
2766.25
3103.12
2994
2507.38
1904.75
1274.62
709.5
539.625
651.75
709.125
845.25
1133.62
1490.5
1659.38
1495.38
1324.75
1254.38
1314.62
1574.75
1752.38
1592.5
1295
1300.5
1756.62
2284.62
2412.12
1904.62
1094.62
552.375
294.625
157.125
58
1
0
0
0
0
0
0
0
0
0
0
0
0
0
0
0
0
0
0
0
0
0
0
0
0
0
0
0
0
0
0
0
0
0
0
0
0
0
0
0
0
0
0
0
0
0
0
0
0
0
0
0
0
0
0
0
0
0
0
0
0
0
0
0
70.625
368.125
573.375
463
735.375
1606
2314.88
2383.12
1946.88
1364.38
1025.88
1056.62
1227.38
1265
1194.12
1171.25
1173.25
1232.5
1191.75
819.375
609.75
709.625
714.125
709.125
825.375
1021
1183
1317.62
1496.25
1687.75
2020.38
2579.62
3040
2957.12
2382.62
1840.88
1397.12
856
597.375
722.625
820.125
871.875
1032
1337.62
1500.25
1298.12
1121.62
1201.62
1425.25
1605.38
1561.88
1285.88
1036.38
1084.12
1526.12
2149.75
2525.5
2420.75
1793.75
1017.88
511.625
233.75
61.125
-2.375
0
0
0
0
0
0
0
0
0
0
0
0
0
0
0
0
0
0
0
0
0
0
0
0
0
0
0
0
0
0
0
0
0
0
0
0
0
0
0
0
0
0
0
0
0
0
0
0
0
0
0
0
0
0
0
0
0
0
0
0
0
0
23.875
253.375
519.5
520
649.875
1411.5
2236.88
2438.12
2117.12
1519.38
1002.62
793.375
855
1027.5
1096.62
1027
1022.38
1117.25
1153
1008.38
709.875
588.625
676.5
693
654.75
659.25
721.125
816.625
998.25
1182.62
1266.62
1544.75
2165.12
2619.12
2285.75
1493.25
1039.88
871.375
616
505.75
679.875
819.375
888.125
965.875
1089.88
1236.12
1158.25
997.75
1109.12
1379.38
1460.5
1272.5
979.75
815.5
892.5
1212.12
1803.25
2399.12
2603
2299.25
1600.62
870.5
409.875
152
22.5
-1.75
0
0
0
0
0
0
0
0
0
0
0
0
0
0
0
0
0
0
0
0
0
0
0
0
0
0
0
0
0
0
0
0
0
0
0
0
0
0
0
0
0
0
0
0
0
0
0
0
0
0
0
0
0
0
0
0
0
0
0
0
0
142.375
486.5
666.125
584.375
969
1920.12
2444.5
2302.5
1949.38
1504.88
1057.12
787.25
751.875
844
883.375
831.625
842.375
958.125
951.125
699.375
483.875
511.75
630.875
659.25
569
437.875
423.5
604.5
869.75
987.875
987.25
1294.12
1947.75
2284.88
1700
834.125
488.5
417.375
307.625
313
550
758.5
890.625
916.25
816.625
903.625
978.875
845.625
847.75
1023.12
1120.5
1009
821.375
733.375
748.5
824.625
1224.38
1965.5
2473.25
2496.5
2065.38
1296.5
688.625
362.375
115
7.75
0
0
0
0
0
0
0
0
0
0
0
0
0
0
0
0
0
0
0
0
0
0
0
0
0
0
0
0
0
0
0
0
0
0
0
0
0
0
0
0
0
0
0
0
0
0
0
0
0
0
0
0
0
0
0
0
0
0
0
0
37.875
363.625
698.375
685.375
666
1317.25
2252.12
2377.62
1934.88
1652.12
1563.12
1334
997.625
833.5
817
738.125
629.625
626.375
723.25
726.75
533.125
427.75
524.125
638.375
653.375
522.75
348.75
387.5
674.375
952.5
1025.75
1016.12
1270.5
1818.75
2147.62
1704.38
959
590.75
445.5
300
293.875
521.875
731.375
837
802.5
637.625
677.125
763.625
654.375
569.125
655
815.25
816.125
743.875
731.5
690.25
593.125
750.625
1412.62
2153.25
2536.38
2372.38
1621.38
913.625
554.125
263.75
68.5
4.125
0
0
0
0
0
0
0
0
0
0
0
0
0
0
0
0
0
0
0
0
0
0
0
0
0
0
0
0
0
0
0
0
0
0
0
0
0
0
0
0
0
0
0
0
0
0
0
0
0
0
0
0
0
0
0
0
0
0
0
178.375
569.75
770
680.75
918.25
1875.75
2587.38
2267.25
1540.75
1195.75
1292.5
1388.12
1262.12
1080.5
932.75
702.25
500.625
478.875
561
598.625
540.25
561.875
666.5
729.375
681.5
460.25
256
338.375
653.875
911
944.25
915.5
1173
1737.88
2139.12
1919.38
1326.62
889.75
629
427.625
392.125
564.125
692.75
687.375
617
564.25
646.75
671.75
551.375
459.125
548.125
733.125
770.75
770.25
822
767.25
614.375
651.5
1120
1876.5
2566.75
2672.38
1903.25
983.875
588
412.875
187.375
31.5
0
0
0
0
0
0
0
0
0
0
0
0
0
0
0
0
0
0
0
0
0
0
0
0
0
0
0
0
0
0
0
0
0
0
0
0
0
0
0
0
0
0
0
0
0
0
0
0
0
0
0
0
0
0
0
0
0
0
56.75
342.375
634.25
723.125
848.875
1537.25
2529
2766.62
2083.38
1213.12
822.125
879.5
1124
1296.88
1269.62
1138.62
868.5
560.75
480.625
553
580.875
590.75
692.875
777.875
785.5
689.125
401.375
151.625
193.5
439.5
615
631.5
710
1181.5
1866.25
2180.62
1919.88
1400.12
991.375
713.625
504.375
423
551.75
670
618.625
527.5
548.375
680.5
689.5
558.625
501.25
644.125
812.5
821.25
819.875
885
885.375
820
882.25
1163.88
1671
2413.75
2861.12
2395.88
1311.75
654.375
521.625
315.375
85.125
-2.5
0
0
0
0
0
0
0
0
0
0
0
0
0
0
0
0
0
0
0
0
0
0
0
0
0
0
0
0
0
0
0
0
0
0
0
0
0
0
0
0
0
0
0
0
0
0
0
0
0
0
0
0
0
0
0
0
9
190.375
467.125
645.625
772.5
1240.38
2210.12
2804.75
2517.25
1653.38
842.25
548.875
576
783
1044.5
1169.62
1224.12
1175.62
910.625
686.625
682.875
678.125
645.625
685.75
695.25
671.125
566.25
324.125
153.375
159.625
268.75
366.75
429
686.875
1421.38
2194.88
2307.88
1793.88
1187
824.75
627.375
467.125
354
503.375
770.875
800.5
699.25
655.25
700.125
703.75
596
603.375
819.75
936.25
847.625
787.625
839.75
947.25
1044.12
1163.25
1327.12
1473.12
1872.38
2542.38
2741.75
1835.25
852.5
588.25
428.625
179.75
16.625
-1.875
0
0
0
0
0
0
0
0
0
0
0
0
0
0
0
0
0
0
0
0
0
0
0
0
0
0
0
0
0
0
0
0
0
0
0
0
0
0
0
0
0
0
0
0
0
0
0
0
0
0
0
0
0
0
0
90
322.875
498.625
690.25
914
1672.62
2652.62
2735.25
2149.5
1281.88
581
377.375
432.625
591.625
791.625
936.75
1099.25
1283.62
1205.75
921.625
833.75
793.375
632.75
540.625
513.625
490.125
361.875
188.375
170.625
203.25
238.375
346
489
822.25
1625.5
2444.25
2473
1724.25
991.75
654.25
474.125
329.125
224.25
394.75
773.25
905.375
860.125
753.5
674.125
684.75
632.75
707
948.5
1001
856.625
779.375
834.75
962.125
1057.5
1153.88
1299.25
1311.38
1383.75
2010.25
2649.62
2047.88
941
568.25
514.5
335.125
92.125
-2.875
0
0
0
0
0
0
0
0
0
0
0
0
0
0
0
0
0
0
0
0
0
0
0
0
0
0
0
0
0
0
0
0
0
0
0
0
0
0
0
0
0
0
0
0
0
0
0
0
0
0
0
0
0
0
14.875
202.75
379
449.5
754.25
1144.12
2068.62
2881.12
2591.88
1914.25
1164
624.875
526.25
608.5
703.375
773.625
818.625
914
1063.88
1046.62
861.875
807.375
741.625
523.875
421.25
436.25
417.75
261.125
89
109
203.5
324.5
523.5
706.375
931
1582.88
2443.12
2589.75
1760
905.875
562.125
368.375
191.25
74.5
209.375
571.375
746
744.375
638.625
563.375
641.625
652.875
739.625
953.875
993.75
888.75
877.375
970.875
1038.5
1023.75
1033.5
1150.12
1257.62
1369.62
1895.12
2590.5
2248.75
1079.62
503.375
535.75
479.625
222.375
32
-0.875
0
0
0
0
0
0
0
0
0
0
0
0
0
0
0
0
0
0
0
0
0
0
0
0
0
0
0
0
0
0
0
0
0
0
0
0
0
0
0
0
0
0
0
0
0
0
0
0
0
0
0
0
0
71.5
231.25
326.5
457.625
851
1439.88
2341.38
2831.75
2389.38
1780.38
1284.5
1015.25
1026.25
1094.88
1114.38
1062.88
989.375
972.375
978.5
888.375
760
699.25
558.875
370.5
387.625
519.5
532.625
315.75
63.625
40.875
164.875
367.375
607
723
776.125
1268.12
2196.25
2600.75
1919.5
1017.62
649.75
458.5
207.625
38.75
145.125
470.5
634.25
609.875
501.5
463.875
595.875
665.125
782.875
1020.75
1094.88
1033.5
1062.88
1162.88
1212.12
1203
1192.38
1267.88
1478.38
1736.12
2123.62
2632.75
2555.38
1442.12
526.625
488.75
566.75
399.25
119.125
-2.625
0
0
0
0
0
0
0
0
0
0
0
0
0
0
0
0
0
0
0
0
0
0
0
0
0
0
0
0
0
0
0
0
0
0
0
0
0
0
0
0
0
0
0
0
0
0
0
0
0
0
0
0
11.125
88.375
176.75
288.375
451.875
804.625
1514.75
2377.75
2695.12
2227
1691.62
1413.88
1310.38
1321.75
1388.5
1497.12
1546.25
1504.12
1477.12
1450
1289.88
1035.75
776.75
474.375
288.375
402.875
658.5
744.75
515
276.75
221.5
194.125
284.875
474
537.375
531.25
885.375
1741.5
2354.5
2018.38
1219.12
793.125
611.875
345.125
135.125
248
601.375
752.375
668.5
529.625
471.625
608.5
829.875
1089.12
1296
1310.25
1218.25
1182
1204.62
1222.25
1262.75
1318.38
1397.25
1664
2021.5
2233.25
2470
2578.75
1790.5
723.375
458.125
651.875
608.125
242.25
13.875
-4.875
0
0
0
0
0
0
0
0
0
0
0
0
0
0
0
0
0
0
0
0
0
0
0
0
0
0
0
0
0
0
0
0
0
0
0
0
0
0
0
0
0
0
0
0
0
0
0
0
0
0
0
-60.875
-95.5
78.375
326.125
391.375
597.375
1298
2231.88
2643
2204.25
1600.5
1305.38
1228.5
1207
1264.38
1457.38
1639.5
1729.62
1821.12
1901
1798
1500.88
1106.88
665.125
420.5
494.25
684
764.375
705.375
759.875
816.5
595.25
389.125
419.75
451.875
410.625
665.5
1378.75
1979.88
1872.12
1230.88
722.75
530.625
374.125
270.625
494.75
907.25
1016
794.625
600.375
536.375
654.375
1086.62
1542.75
1619
1447.62
1246.25
1098.5
1033
984
994
1061.38
1117.5
1346.75
1768.12
2010.75
2214.88
2470.88
2086.62
1058.5
485.625
657.75
732.375
408.125
87.125
-11.875
0
0
0
0
0
0
0
0
0
0
0
0
0
0
0
0
0
0
0
0
0
0
0
0
0
0
0
0
0
0
0
0
0
0
0
0
0
0
0
0
0
0
0
0
0
0
0
0
0
0
-59.375
-284
-276.75
138.25
398.75
409.375
601.875
1253.25
2132.5
2561.75
2265.62
1712.88
1344.88
1160.5
1003.75
951.125
1076.75
1231
1375.5
1595.38
1848.38
1978.5
1912.5
1572
1021.12
640.375
538.5
527.875
542.5
673.125
1021.5
1293
1179.5
841.625
605.75
497.75
411.125
623.75
1254.12
1747.62
1642.12
1114.25
599.25
360.875
344.75
514.75
863.75
1185.5
1187.62
834.25
585.875
549
624.125
1091.75
1707.75
1860.25
1629
1336.75
1075.5
888.125
772.875
734.25
753.375
784.5
942.625
1330.12
1687.38
2075.25
2572.25
2644.12
1775.5
783.375
619.25
751.625
563
167.375
-19.375
-6.125
0
0
0
0
0
0
0
0
0
0
0
0
0
0
0
0
0
0
0
0
0
0
0
0
0
0
0
0
0
0
0
0
0
0
0
0
0
0
0
0
0
0
0
0
0
0
0
0
0
-180.5
-364.75
-36.875
424.75
510.625
625.375
1069.75
1682
2198.75
2397.25
2244.75
1922.38
1641.38
1357.75
1029.38
837.875
871.5
992.125
1171.25
1477.5
1844.75
2132.12
2204.25
1851.12
1169
649.625
432.75
348.375
371.875
546.5
938.25
1321.75
1449.62
1348
1069.25
732
517.875
627.125
1156.12
1665.62
1565.5
1037.25
552
381.875
572.625
903.125
1153.62
1297.5
1187.12
740.875
462.5
475
538.875
876.875
1466.12
1789.38
1722.38
1533.62
1305.38
1028.38
821.375
739.125
710.375
735.625
848.25
1085.25
1402.75
1933.88
2698.12
3217.88
2755.5
1469.75
738.875
787.5
628.125
159.875
-94.75
-58.75
0
0
0
0
0
0
0
0
0
0
0
0
0
0
0
0
0
0
0
0
0
0
0
0
0
0
0
0
0
0
0
0
0
0
0
0
0
0
0
0
0
0
0
0
0
0
0
0
-50
-214.875
-142.875
326.25
590.125
631
1028.75
1740.5
2187.88
2191.25
2069.88
1932
1786
1687.88
1532
1300.38
1142
1146.62
1265.62
1425.25
1642.38
1903.5
2117
2158.5
1782.25
1042.38
505
331
287.5
356.5
508.125
823.25
1241.62
1493.62
1587.88
1516.62
1188.12
777.375
587.625
917
1519.25
1535.25
959.875
562.125
643.125
967.125
1203.38
1288.5
1306.25
1050.88
564.5
366.5
458.5
544.5
814.875
1297.12
1576.75
1572
1497
1429.38
1301.5
1142.62
1024.62
907.75
847.625
871.125
922.75
1095.38
1609
2479.25
3241.88
3296.12
2157.5
971
766.25
634.375
195.125
-154.75
-124.375
0
0
0
0
0
0
0
0
0
0
0
0
0
0
0
0
0
0
0
0
0
0
0
0
0
0
0
0
0
0
0
0
0
0
0
0
0
0
0
0
0
0
0
0
0
0
0
0
-93.125
-83.375
124.25
322.875
407.75
659.625
1402.12
2140
2283.88
1982
1697.88
1522.38
1410.5
1375.25
1373.75
1395.38
1445.38
1532
1633.75
1662.25
1670.88
1769.25
1924.25
2041.62
1742
963.5
390.375
237.375
241.375
347.5
481.75
698.75
1099.38
1434.12
1535.62
1565.38
1515.12
1222.38
766.625
712.625
1237.75
1436.12
1037
833.125
1019.62
1225
1324.88
1334
1186.12
790.75
434.5
405.375
529
636.75
922
1365.75
1582.5
1551.12
1451
1417.62
1449.38
1411.12
1266.62
1075.38
941.625
886.625
845.5
894
1192.75
1836.62
2664.25
3204.25
2598.75
1302
713.625
632.5
328.125
-70.625
-125.125
-15
0
0
0
0
0
0
0
0
0
0
0
0
0
0
0
0
0
0
0
0
0
0
0
0
0
0
0
0
0
0
0
0
0
0
0
0
0
0
0
0
0
0
0
0
0
0
-10.875
11.125
179.5
215.375
26.625
48.375
649.875
1599
2098.5
2030.88
1774.75
1554.25
1409
1241
1123.5
1154.88
1264
1392.38
1522.38
1592.88
1574
1614.62
1772
1972.38
2152.75
1809
900.125
233.875
64.25
125
268
404.5
567.75
872.625
1198.38
1308.75
1330
1463.62
1503.75
1202.75
908.75
1145.38
1432.25
1321
1220.5
1265.88
1349.12
1410.75
1304
979
566.875
400.125
490.125
595.75
733
997.625
1289
1435.38
1457.62
1407.62
1384.12
1386.88
1338.12
1224.62
1076.88
1014.88
1043.5
1034.5
994.75
1048.75
1319
1973.38
2725.12
2633.25
1507.62
647.25
544
368.625
49.25
-63.75
-27.75
0
0
0
0
0
0
0
0
0
0
0
0
0
0
0
0
0
0
0
0
0
0
0
0
0
0
0
0
0
0
0
0
0
0
0
0
0
0
0
0
0
0
0
0
0
0
26.625
236.75
422.875
145
-237.625
-6.875
941.625
1792.62
1961.62
1858.38
1748.75
1653.38
1581.5
1337.5
1090.38
1085.38
1157.88
1224.62
1280.38
1275.5
1308.75
1517.38
1748.5
1954.75
2132
1720.5
770.375
116.625
-37.625
29.875
168.5
323.875
488.125
686
947.875
1115.12
1134.75
1277.38
1488
1487.75
1345.38
1466.62
1669.38
1576.5
1418.38
1368
1416.75
1414.62
1218.62
878.375
505.875
372.75
523.625
698.75
870.125
1043.75
1080.5
1063.75
1091
1148.38
1268.38
1266
1170.12
1131
1091.62
1173
1398.25
1512.38
1436.75
1356.5
1403.75
1748.25
2304.88
2354.12
1453.25
553
408.375
362.625
159.625
26.75
-11.25
0
0
0
0
0
0
0
0
0
0
0
0
0
0
0
0
0
0
0
0
0
0
0
0
0
0
0
0
0
0
0
0
0
0
0
0
0
0
0
0
0
0
0
0
0
23.5
180.5
459.375
477.125
55.625
-196.25
395.75
1419.5
1954.5
1950.12
1864.5
1819.88
1821.38
1805.75
1557.38
1233.25
1111.25
1114.5
1141.88
1124.5
1061
1114.38
1335
1618.75
1939.62
2116.25
1716.38
852.625
225.125
42.875
23.875
96.625
248.125
365.125
491.25
738.375
994.25
1092.88
1202.5
1422.12
1548.12
1659.5
1917.12
1984.25
1737.88
1527.12
1443.62
1377.25
1280.5
1114.25
819
483.125
313.125
468.75
785.375
1000.88
1069.38
966.375
891.375
1021.75
1285.12
1503.38
1434.5
1232.25
1170
1206.12
1368
1649.88
1858.75
1900.25
1849.38
1829.75
1964.12
2224.5
2218.5
1535.12
643.5
342.375
371.625
259.25
83.375
-0.375
0
0
0
0
0
0
0
0
0
0
0
0
0
0
0
0
0
0
0
0
0
0
0
0
0
0
0
0
0
0
0
0
0
0
0
0
0
0
0
0
0
0
0
0
0
145
462
607.5
376.75
27.5
119
950.25
1767.12
1970.75
1873.25
1743.62
1754.75
1879.88
1877.75
1687.38
1439.25
1283
1230.38
1192.5
1131.88
1093.88
1169.62
1359.62
1718.62
2116.25
2169.38
1763.12
1049.25
433.625
156.75
1
-7.625
133.75
209.875
307
515.625
781
1010.88
1215.5
1455
1618.5
1846.25
2177.88
2172.38
1858.25
1624.38
1460.88
1306.62
1165.88
964.125
682.125
456.75
335
457.25
810.25
1019.5
1051.12
972
974.75
1342.25
1771.75
1824.25
1564.25
1293.62
1224.38
1318.38
1450.5
1582
1768.88
2039.5
2197.38
2185.38
2185.75
2265.88
2299.12
1910.25
1038.75
429.625
377.5
324.625
105.625
-13.375
-9.5
0
0
0
0
0
0
0
0
0
0
0
0
0
0
0
0
0
0
0
0
0
0
0
0
0
0
0
0
0
0
0
0
0
0
0
0
0
0
0
0
0
0
0
0
249.375
661.5
671.875
295.125
79.5
546.75
1472.38
1959.25
1876.88
1619.88
1370.38
1462.88
1761.12
1776.62
1597.62
1454.12
1428.12
1440.5
1360.75
1294.38
1317.38
1398
1525.38
1766.88
1932.38
1763.88
1458.12
1102
659.625
287.5
-4
-74.875
60.5
173.375
261.875
382.875
595.375
855
1144.5
1459.62
1674.25
1910.25
2215.25
2192.62
1897.38
1639
1412.25
1263.75
1077.38
811.25
594.625
490.125
445.625
563.75
875.125
1015.12
1023.5
986.625
1007.88
1392.25
1739.75
1627
1347.88
1169.62
1174.75
1301.38
1356.62
1338.75
1496.25
1901.62
2151
2052.5
1922.62
2044.25
2327.88
2247.12
1488.12
686.25
463.625
390.875
138.875
-44.125
-44.5
0
0
0
0
0
0
0
0
0
0
0
0
0
0
0
0
0
0
0
0
0
0
0
0
0
0
0
0
0
0
0
0
0
0
0
0
0
0
0
0
0
0
0
36.625
323.25
690.5
635.75
277.625
260.25
1042.5
1880.75
1985.88
1674.62
1266.88
966.75
1116
1501.88
1578
1403.12
1296.75
1375.75
1483.12
1477.38
1476.5
1541.62
1562.12
1537.38
1577.62
1523.88
1290.12
1203.5
1193
904
455.375
76.25
-25
97
197.375
232.125
309.625
520.375
780
1077.5
1405.38
1616.25
1828.25
2093.62
2054.25
1814.75
1599.12
1342.88
1105
862.5
664
559.875
562.875
644.875
817.375
1013.25
997.125
942.5
928.625
917.625
1106.88
1306.62
1251.62
1106.38
1029.62
1049.25
1136.12
1203.5
1257.88
1445.62
1721.12
1737
1520.75
1417.5
1700.88
2245.12
2370.5
1730
839.75
507
475
224.75
-47.75
-79
0
0
0
0
0
0
0
0
0
0
0
0
0
0
0
0
0
0
0
0
0
0
0
0
0
0
0
0
0
0
0
0
0
0
0
0
0
0
0
0
0
0
0
152.5
517.875
739.875
556
264.625
568.125
1530.75
2085.5
1889.5
1464.25
1025.75
803.875
950.625
1216.62
1275.38
1163.12
1128.5
1242
1361
1452.62
1567.88
1660.5
1609.62
1445.88
1352.62
1270.12
1147.62
1202.12
1280.12
1047.38
604.375
192
30.25
61.75
66.625
94.5
227.875
423
722.25
1132.62
1452.25
1568.88
1754.12
1989.62
1892
1710.5
1582.5
1241.75
892.25
718.75
641.5
587.5
633.5
849
1064
1042.38
834.75
791.125
858.25
875.75
956.75
1083.88
1147.38
1146.62
1083.75
980
984
1175.38
1460.75
1642.62
1565.38
1294.88
1142.5
1201.12
1573.25
2184.25
2389
1789
732.25
379
524
297.375
-16.125
-81.75
-8.25
0
0
0
0
0
0
0
0
0
0
0
0
0
0
0
0
0
0
0
0
0
0
0
0
0
0
0
0
0
0
0
0
0
0
0
0
0
0
0
0
0
0
277.375
679.5
748.5
494.75
337.25
942.375
1869.25
2100.88
1738.12
1293.25
944.625
845.75
949.25
1003.38
973.5
943
997.875
1148.25
1280.88
1403.62
1531.62
1582.88
1524.88
1372.75
1204.12
1095.25
1062
1143.75
1250.75
1187.25
897.75
482.75
151.125
-56.375
-158.375
-52.375
159.5
320.125
638.25
1184.25
1544.75
1626.25
1846
2041.5
1841.75
1685.62
1602.12
1226
953
909.875
839.375
720.375
707.125
925
1113
970.5
658.75
657
828.875
865
931
1071.5
1218.5
1376.75
1353.75
1106
990.5
1190.75
1529
1604.5
1276.38
969.625
988.875
1213
1653
2191.88
2368.12
1883.88
975.5
518
485.75
229.25
-75.5
-133.5
-44.125
0
0
0
0
0
0
0
0
0
0
0
0
0
0
0
0
0
0
0
0
0
0
0
0
0
0
0
0
0
0
0
0
0
0
0
0
0
0
0
0
0
0
207.875
529.75
604.5
433.625
506.875
1263.38
2006.62
2054.12
1677.75
1237.12
924.75
905.375
999.875
949.25
892.75
901.75
958.25
1097.25
1266
1387.75
1401.38
1327.5
1302.75
1295.75
1171.25
1037.38
1002.5
1053.38
1188.75
1305.5
1230.25
895.875
456
49.75
-176.75
-39.375
224.875
384.125
727.75
1316.75
1694.12
1772.62
1910.88
1995.62
1857.12
1825
1780.12
1484.75
1255.12
1118.88
999.75
952.625
957.375
1043
1127.88
948.75
543.125
526.125
804.5
866.875
925.25
1061.88
1165
1373.38
1459.62
1231.88
1051.75
1106.12
1239.12
1203.88
929.875
791.625
965.625
1293
1741.25
2176.62
2350.75
2063
1417
780.25
444.75
183.625
-102.125
-172.25
-78.625
0
0
0
0
0
0
0
0
0
0
0
0
0
0
0
0
0
0
0
0
0
0
0
0
0
0
0
0
0
0
0
0
0
0
0
0
0
0
0
0
0
-106.375
-237.25
44.5
374.375
371.5
693.375
1529.38
2061.38
2005.25
1765.88
1406
1037.75
1035.62
1131.5
1026
1016.75
1092.88
1123.75
1165.75
1273.12
1336.5
1235.25
1041.88
1008.12
1099.5
1092
1030.62
988.75
971.25
1036.38
1213.5
1270.38
1039.5
751.75
397.625
89.25
262.625
552.875
708.375
1148.5
1764.5
2091.88
2054.5
1924.25
1858
1922.62
2116.38
2151.12
1868.62
1450
1165.75
1138.62
1223
1209.38
1117.5
1088.12
861.125
470.25
548
844.5
879.625
915.125
1018.38
1097.62
1259.38
1330.5
1161.88
1027.25
1001.5
972.125
925.875
842.625
876
1055.75
1262.25
1564
1969.75
2273.88
2168.38
1541.38
673.625
318.375
272.875
61.75
-55.25
-41.5
0
0
0
0
0
0
0
0
0
0
0
0
0
0
0
0
0
0
0
0
0
0
0
0
0
0
0
0
0
0
0
0
0
0
0
0
0
0
0
0
0
-691.625
-1301.25
-563.375
149.375
356.5
1041.5
1902.12
2135.75
1952.38
1840.38
1661.88
1341.88
1318.75
1291.88
1052.25
1090.62
1332.75
1500
1549.25
1556.25
1468.12
1201.62
844
688.125
739.625
823.5
913.375
960.75
924.75
886.375
1035.38
1108.75
915.5
848.625
698.5
433.75
630.125
943.25
1189.25
1746.38
2373
2611.12
2381.25
2036.25
1905.12
2080.88
2385.62
2446.12
2116.75
1574.38
1316.12
1362.88
1350.12
1170
958.875
807.75
531
450.375
792.625
986.75
903.75
884.75
996.5
1166
1273.25
1224.62
1084.25
1010.38
993.25
972
1011.88
1096.88
1137.75
1098.75
1089.38
1264.25
1691.25
2134.5
2191.75
1674.12
627.25
179.5
347.25
223.75
68.25
12.25
0
0
0
0
0
0
0
0
0
0
0
0
0
0
0
0
0
0
0
0
0
0
0
0
0
0
0
0
0
0
0
0
0
0
0
0
0
0
0
0
0
-1078.62
-1912.38
-845.25
49.625
505.875
1543.75
2254.62
2132.75
1804.12
1692.12
1701.38
1575
1516.62
1348.5
1042.12
1029.25
1322.25
1676.5
1885
1925.62
1778.5
1389.88
867.875
524.875
456.75
584.25
777.375
889.125
895.625
886.5
1017.75
1082.25
934.375
919.125
899.375
721.25
786.75
1097
1539.62
2152
2734.75
2938.75
2614.88
2176.75
2051.38
2281.62
2557.75
2516.12
2181.88
1716
1480
1454.88
1359.25
1129.62
823.125
493.875
240.125
463.875
915.125
1021.25
932.375
935.125
1087.88
1292.75
1327.5
1248.12
1222.5
1212.5
1185.62
1236.5
1401.25
1477.38
1270.5
1034.12
1034.38
1265.88
1722
2148.75
2249.25
1837.38
778.125
243.75
391.75
206.125
-56.5
-108.75
-37.625
0
0
0
0
0
0
0
0
0
0
0
0
0
0
0
0
0
0
0
0
0
0
0
0
0
0
0
0
0
0
0
0
0
0
0
0
0
0
0
0
-692.25
-1129.75
-373.75
222.75
890.625
2008.88
2417.5
2001.75
1534.88
1406.62
1457.5
1437.25
1505.88
1413.75
1122
1005.62
1170
1513.5
1814.88
1950.62
1864.25
1504.62
965.875
572.75
463.375
566.25
735
811.5
822.75
914
1109.25
1164.75
1009.12
937.5
941.25
821.625
771.75
1070.12
1647
2255.25
2753
2942.62
2664.75
2241.38
2118.25
2354.62
2549.75
2402.88
2090.12
1739.38
1506
1399.25
1315.88
1186.88
834.625
389.75
258.125
526.875
826.875
894.125
892.375
956.25
1087
1224.12
1252.25
1312.88
1520.75
1687.25
1694.38
1729.5
1808.88
1606.25
1112.38
946
1168.88
1516.25
1999.75
2357.25
2441.88
2056.38
1097
536
463.25
74.125
-335.125
-320
-88.5
0
0
0
0
0
0
0
0
0
0
0
0
0
0
0
0
0
0
0
0
0
0
0
0
0
0
0
0
0
0
0
0
0
0
0
0
0
0
0
0
-353.125
-276
309.5
540
1273.5
2315.25
2467.5
1856.62
1319.62
1237.5
1247
1185.38
1379.75
1403.38
1110.12
977
1075.62
1352.12
1667.75
1834.88
1756.62
1443.38
986.25
660.5
555.875
595.375
721.25
772.5
750.5
865.5
1109.5
1149
956.875
844
833.75
763.25
740.75
1073.25
1710.88
2280.12
2588.5
2607.5
2359.12
2066.5
1994.12
2171.38
2328
2241.62
2004.25
1721.12
1486.12
1286.38
1114.38
1045.5
747.875
294.125
275.25
511.25
676.625
771.75
813.875
830.25
831.375
867.875
947.625
1165
1619.88
2044.5
2142.25
2042.62
1854
1445.5
961.375
936.375
1289.25
1695.88
2152.5
2492.12
2606.88
2311.12
1465.38
660.25
418.125
140.875
-318.125
-361.375
-117
0
0
0
0
0
0
0
0
0
0
0
0
0
0
0
0
0
0
0
0
0
0
0
0
0
0
0
0
0
0
0
0
0
0
0
0
0
0
0
-17.625
-244
64.625
683
803.375
1488.5
2439.75
2458.62
1782.25
1245.5
1192.12
1269.38
1283.62
1420.75
1401.5
1129
1000.75
1089.12
1354.62
1675.25
1795.75
1619
1306.38
983.875
752
618.875
574.125
657.75
729.5
721.125
799.5
985
1042.75
925.125
780.75
759
813.5
884.875
1214.62
1816.5
2276.62
2331.75
2149.62
1953.5
1832.38
1821.38
1917.12
2054.88
2105.62
1987.25
1703.5
1397.5
1114.88
866.875
804.875
559.75
168.625
230.5
426.5
543.625
732.375
808
720.125
597.375
584
703.25
990
1530.25
2015.12
2119
1958.5
1716.38
1436.38
1200.75
1224.88
1501.12
1813.88
2084.88
2347.88
2547.62
2461.38
1775.5
684.625
374.875
435
5.875
-227.875
-108.25
0
0
0
0
0
0
0
0
0
0
0
0
0
0
0
0
0
0
0
0
0
0
0
0
0
0
0
0
0
0
0
0
0
0
0
0
0
0
0
-12.375
-21.75
308.5
721.625
916.125
1717.88
2554.25
2414.5
1770.38
1271.88
1181.12
1323.62
1496.88
1657.5
1662.38
1447.5
1277.12
1304.88
1514.88
1791.25
1857.88
1591.25
1215.75
952.875
805.625
672
564.625
577.625
649.25
680.75
735.625
854.125
963.25
948.375
772.75
781.625
993.25
1145.75
1411.88
1825.88
2064.5
1953.88
1760.5
1729.5
1756.62
1754.75
1774.38
1822.12
1900.88
1884
1616.25
1280.38
982.375
727.5
665.625
426.375
115.125
224.375
359.875
462.625
710.75
813.125
678
529.625
540.5
741.75
1120.75
1571
1868.5
1925.5
1844.25
1743.62
1660
1581.88
1588.38
1712
1794.12
1779.88
1882.75
2216.88
2475
1992.12
821.125
465.5
689.625
341.5
-26.375
-56.375
0
0
0
0
0
0
0
0
0
0
0
0
0
0
0
0
0
0
0
0
0
0
0
0
0
0
0
0
0
0
0
0
0
0
0
0
0
0
0
37.125
220.5
485.875
647
941.375
1897
2610.5
2350.62
1819.25
1397.12
1223.5
1279.12
1428.88
1652.25
1810.75
1675.38
1437.75
1375.38
1491.12
1723.25
1895.88
1796.25
1442.25
1061.88
830
685.375
570
538.75
584.25
628.5
678
781.375
946.625
991.625
795.5
840.625
1130.62
1297.5
1476
1644.38
1663.62
1547.88
1473.62
1628.25
1800.25
1790.88
1736
1649.5
1636.38
1672
1508.62
1221.88
875.875
600.375
580.5
360.125
94.875
220.75
337.375
447.875
665
746
651
576.75
658.25
913.125
1269.5
1572.62
1765.25
1864.5
1852.12
1776.25
1691.38
1586.88
1535.75
1566.38
1506.88
1369.12
1387
1827.75
2388.88
2046.38
912.875
528.875
714.75
440.125
72.125
-25
0
0
0
0
0
0
0
0
0
0
0
0
0
0
0
0
0
0
0
0
0
0
0
0
0
0
0
0
0
0
0
0
0
0
0
0
0
0
0
73.75
303.125
542.875
672.875
1029.75
1957.62
2549.38
2292.25
1881.88
1584.12
1406.5
1329
1310.12
1418.62
1620.75
1600.38
1336
1137.88
1124.12
1324.25
1691.25
1929.25
1788.25
1347.12
934
724.5
609.625
544
565.625
607.5
641.5
734
944.625
1025.88
815.625
860.125
1160.25
1329
1454.5
1476.75
1413.12
1337.12
1320.75
1586.25
1869.25
1842.25
1691.5
1513.38
1431.12
1482.88
1422.88
1190.38
782.75
500.625
543.25
343.25
89.125
217.875
381
505.875
637.625
672.875
624.75
618.875
724
915.25
1142.38
1423
1724.12
1871.25
1766.25
1555.12
1418.5
1326.12
1273
1275.88
1216.75
1177.62
1312.75
1798.25
2385.75
2265.25
1349.75
700.125
581.75
340.875
50.25
-25.875
0
0
0
0
0
0
0
0
0
0
0
0
0
0
0
0
0
0
0
0
0
0
0
0
0
0
0
0
0
0
0
0
0
0
0
0
0
0
0
74.5
278.375
478.625
631.125
1087.12
1973.88
2471.25
2225.25
1808.12
1580.38
1532.12
1519.12
1467.75
1412.25
1495
1577.75
1429.88
1163.38
1006.38
1109.5
1471.88
1821.75
1895
1641
1201.5
863.375
683
572.625
561.125
600.625
637.75
729.5
955.875
1048.25
882.375
983.25
1259
1389.62
1449.12
1381.25
1334
1287
1265.88
1573.62
1891.25
1830.88
1607
1432.75
1350.12
1362.88
1338.88
1168.25
786.25
506.125
533.625
324.75
70.125
199.125
432.875
573.375
625.625
635.625
596
590.75
677.375
833.125
1071.5
1442.25
1775.62
1783.12
1524.88
1323.5
1304.5
1334.12
1334.25
1310.25
1286.25
1392.5
1696
2140.38
2511
2456.38
1730.38
875.625
530.875
323.125
55.5
-24.625
0
0
0
0
0
0
0
0
0
0
0
0
0
0
0
0
0
0
0
0
0
0
0
0
0
0
0
0
0
0
0
0
0
0
0
0
0
0
0
69.375
262
456.25
649.375
1129.25
1887.5
2311.75
2084.5
1611.75
1368.5
1412.75
1537.75
1569.62
1504
1528.5
1637.38
1667.5
1553.25
1369.25
1296.88
1390.62
1528.62
1669.75
1747.88
1538.62
1110.75
781.125
623.125
576.75
598.75
635.375
722.875
955.75
1041.62
922.875
1156.62
1458.12
1481.75
1370.75
1204.75
1222.25
1239.25
1259.75
1615.25
1949.75
1867.88
1598.62
1427.38
1326.88
1278.88
1256.88
1136.62
820.375
536.5
487.25
243.875
9
184.875
467.125
594.25
606.125
619
597.875
616.375
767.5
1030.62
1371.88
1715.88
1847.38
1649.38
1411.62
1389.5
1491.38
1594.38
1651.62
1657.38
1685.5
1835.38
2115.12
2424.12
2604
2419.62
1698.88
905.75
565.75
351.5
82.375
-10.875
0
0
0
0
0
0
0
0
0
0
0
0
0
0
0
0
0
0
0
0
0
0
0
0
0
0
0
0
0
0
0
0
0
0
0
0
0
0
0
72.125
246.875
416.125
683.875
1166.88
1707.5
2040.62
1900.12
1519.5
1324.38
1344.38
1433.25
1442.88
1385.25
1404.12
1495
1611.62
1683.25
1587.88
1384.38
1207.88
1136.5
1267.25
1555.12
1649
1340.88
905.125
658.875
600
611.625
631.125
700.5
939.25
1032.75
932.875
1216.12
1502.38
1402.5
1158.62
1046.88
1182.75
1234.25
1313.62
1695.75
2026.25
1956.75
1651.62
1425.62
1298.5
1245.25
1229.88
1117.25
824.5
544.875
422.25
138.625
-22.625
216
481.875
568.25
575.625
609.25
643.125
778.75
1068.75
1415.75
1724.5
1860.75
1717
1449.75
1333.62
1366.38
1449.88
1585.12
1749.75
1874.5
1959.38
2068
2244.88
2470.38
2591.88
2353.5
1665.38
966.625
621.75
358.875
94.75
2.625
0
0
0
0
0
0
0
0
0
0
0
0
0
0
0
0
0
0
0
0
0
0
0
0
0
0
0
0
0
0
0
0
0
0
0
0
0
0
0
22.875
136.75
277.875
558.625
1049.25
1518.25
1839
1811
1584.12
1472.5
1449.88
1450.62
1403.75
1297.5
1243.75
1286.38
1370.12
1432.62
1380.62
1184.88
963.625
916.625
1123.25
1397.38
1504.75
1356.5
1001.38
693.75
596.125
597
611.625
684.875
919.625
1080
1123.88
1368.25
1479.62
1282.75
1061
1074.25
1233.12
1304.38
1475.62
1809.88
2057.75
2027.25
1765.88
1481.75
1298.5
1262.5
1271.62
1169
882
602.5
415.875
132.25
88.625
319.375
486.5
540.125
558.75
608.375
748.875
1086
1467
1716.62
1790.75
1601.25
1252.88
1056.88
1056.62
1103.88
1209.62
1396
1611.62
1755.75
1841.38
1927.12
2094.75
2345
2486.62
2317.38
1715.38
1043.75
656.875
350.875
89.125
3.5
0
0
0
0
0
0
0
0
0
0
0
0
0
0
0
0
0
0
0
0
0
0
0
0
0
0
0
0
0
0
0
0
0
0
0
0
0
0
0
-127.125
-91.375
149.5
453
992
1539.25
1855.25
1829.62
1672.25
1636.25
1637.25
1586.5
1486.62
1354.62
1234.38
1177.5
1192.12
1212.38
1144.12
974.625
847.625
955.375
1270.38
1454.62
1378.75
1230.12
1011
737.875
585.75
558
577
667.5
887.375
1127.25
1409.25
1695.25
1658
1377.88
1208.75
1266
1366.38
1507.38
1741.62
1950
2079.12
2084.88
1949.12
1667.12
1381.75
1323.5
1356
1299.62
1075.75
752.875
448
201.125
288.25
472
495.375
501.75
519.125
599.25
890.5
1370.75
1708.25
1773.88
1581
1174.5
846.75
789.25
895.25
1063.75
1254.5
1424.88
1573.75
1677.25
1780.5
1860.75
1953.38
2143.25
2326.88
2318
1826.12
1118.75
654.875
324
74.25
-4
0
0
0
0
0
0
0
0
0
0
0
0
0
0
0
0
0
0
0
0
0
0
0
0
0
0
0
0
0
0
0
0
0
0
0
0
0
0
0
-179.5
-134.875
155.625
449.5
1143.62
1832.25
2015.88
1869.62
1725
1751.5
1829.62
1782.38
1652.38
1522.62
1385.25
1266.25
1229.88
1217.62
1115.38
942.875
919.25
1182.25
1495.5
1521.5
1308.12
1115.62
930.5
718.875
602
584.125
586.25
656.5
877.375
1209
1678.5
2047.88
1956.88
1613.88
1461.12
1529
1638.88
1816.5
1991.25
2077.5
2113.5
2113
2082.62
1896.38
1550.88
1386.25
1433.12
1517.75
1415
1001.75
536.875
275.125
407.875
578.125
499.5
437.875
470.375
597.5
944.75
1376.38
1588.88
1544.88
1293.62
1023.12
932.375
959.875
1094.12
1325
1503.88
1602
1708.5
1805.62
1848
1808.38
1751.38
1868.75
2147.12
2298.38
1911.12
1182
636.875
285
40.5
-25.875
0
0
0
0
0
0
0
0
0
0
0
0
0
0
0
0
0
0
0
0
0
0
0
0
0
0
0
0
0
0
0
0
0
0
0
0
0
0
0
-89.375
14
232.125
433.75
1175.25
1998
2108.38
1828.88
1617.88
1611.25
1744.62
1761.12
1666.88
1571.5
1470.12
1409.12
1416.38
1403.62
1317.75
1189.62
1180.5
1396.5
1581.38
1458.12
1184.62
1011.38
864.625
712.25
671.125
691.375
627.25
615
923.625
1454.88
1985
2263.75
2142.75
1862.12
1718.25
1727.88
1816.75
1934.62
2018.75
2057.12
2039.88
2037.62
2101
2054
1763.25
1505.62
1529.25
1747
1733.62
1301
738.625
300
310.75
516
432.625
340
472.875
641.625
859.625
1172.62
1376.25
1368.88
1224.25
1131.25
1147.62
1180.12
1278.38
1417
1481.75
1522.5
1598
1612.75
1533.5
1430.25
1395
1604.62
2008.12
2234.62
1856.62
1132.12
608.625
263.75
6.625
-48.375
0
0
0
0
0
0
0
0
0
0
0
0
0
0
0
0
0
0
0
0
0
0
0
0
0
0
0
0
0
0
0
0
0
0
0
0
0
0
0
-45.375
41.625
238.625
414.875
985.375
1806.62
1985.12
1610.38
1326.25
1299.25
1456.25
1532.62
1437.5
1310
1241.5
1260.88
1366.12
1470.38
1525.38
1476.75
1361.62
1325
1321.5
1187.62
982.625
884.625
832.625
750.5
752.125
791.25
684.875
692.375
1158
1775.75
2144.75
2211.88
2114.62
1953.12
1751.88
1609.5
1636.88
1737.25
1795.12
1804.62
1746.38
1796.5
2008.5
2091.75
1931.25
1718.75
1659.75
1808.12
1823
1529.75
977.625
269.25
92.375
353.125
293
193.375
423.125
618.5
712.125
993.125
1281
1317.88
1176.62
1045.88
1019.88
1030
1043.88
1075.25
1100.25
1152.88
1242.62
1252.38
1210.62
1195
1236.62
1508.88
1951.5
2157.25
1722.88
1014.5
579.5
284.125
42.125
-25.125
0
0
0
0
0
0
0
0
0
0
0
0
0
0
0
0
0
0
0
0
0
0
0
0
0
0
0
0
0
0
0
0
0
0
0
0
0
0
0
-30.5
17.75
229
419.125
790.375
1553.88
1815.5
1400.25
1111.38
1101.12
1261.62
1380.75
1257.12
1031.38
934.375
972.125
1078.62
1205.38
1311
1274.38
1129
1033.12
960.375
850.75
743.375
705.875
732.125
737.875
755.5
797.5
781.625
951.125
1421.75
1803.5
1948
2007.88
1996.12
1802.88
1477
1270.12
1312.5
1397.5
1404.62
1395.5
1318.75
1375.5
1677.75
1874.25
1871.5
1823.38
1763
1785.62
1799.62
1695.38
1293.38
449
33.25
240.125
194.625
88
302.375
490.875
592
865.25
1192.88
1316
1207.62
1038.12
919.75
796.5
697.75
711.25
807
936.25
1084.12
1184.38
1235.5
1264.62
1305
1560
1961.88
2061
1556.62
896.5
547.375
305.875
103.625
18.25
0
0
0
0
0
0
0
0
0
0
0
0
0
0
0
0
0
0
0
0
0
0
0
0
0
0
0
0
0
0
0
0
0
0
0
0
0
0
0
-13.375
14.75
190.625
360.375
656.875
1412.38
1742.5
1350
1061.88
1012.75
1105.38
1192.12
1080.12
861
752.75
774.125
825.125
863.125
878.75
814.25
744.375
741.75
717.125
662.125
612.625
568.875
593.625
660.25
729.25
826.375
923.5
1117.38
1385.75
1483.38
1537
1759
1862.75
1621
1291
1163.62
1153.5
1068.88
1007.25
1040.12
980.375
964.125
1180.75
1375.25
1499.12
1661.75
1777.88
1855.75
1889
1903.38
1731
1034.38
397
305.25
216.5
111.125
260.375
425.625
552.75
798.375
1178
1505.25
1556.38
1389.38
1139.25
853.125
676.75
700.625
843.125
993.5
1112.75
1217
1295
1335
1443.62
1767.38
2093.62
1963.5
1337.38
767.625
517
327.5
152.5
46
0
0
0
0
0
0
0
0
0
0
0
0
0
0
0
0
0
0
0
0
0
0
0
0
0
0
0
0
0
0
0
0
0
0
0
0
0
0
0
-1
7.125
115
303.875
627.75
1312.25
1667.88
1336.75
1008.12
890.75
893.75
911.375
856.5
751.875
677.75
681.5
701.875
686.625
646.75
595.5
578
582
576.125
580.75
565.5
523.625
540.5
647.5
817.875
976.75
1040.88
1132.25
1277.38
1254
1176.25
1314
1472.25
1410.62
1257.88
1203
1118.25
911.625
817.875
864.25
804.125
692.75
752
913
1113.38
1354.62
1627.62
1863.12
1975.25
2079.75
2053.12
1615.12
946.375
520.125
337.625
241.5
304.5
417.375
529.75
734
1082.12
1431.25
1536.5
1451.38
1316.88
1140.62
1035.25
1082.25
1177.62
1210.62
1178
1167.5
1200.75
1232.12
1433.5
1875.5
2137.25
1795.38
1112.88
683.625
519.25
379.625
216.125
63.75
0
0
0
0
0
0
0
0
0
0
0
0
0
0
0
0
0
0
0
0
0
0
0
0
0
0
0
0
0
0
0
0
0
0
0
0
0
0
0
4.125
0
68.75
302.25
630.25
1186.12
1584.38
1328.88
888.375
678
659.5
689.5
710.875
697.25
683.125
715.375
709.875
639.25
570
541.75
551.125
546.75
521.375
507
492.125
512
649
854
1007.5
1090.75
1098.88
1148.75
1267.12
1167.75
889.625
808.625
956
1080.62
1079.12
1083.25
1108.5
977.5
774.375
698.375
656.375
543.5
557
767.75
973.5
1095.5
1302.62
1558.88
1748
1924.5
1911.25
1640.5
1210.25
765.25
494.375
382
371
424
477.375
548.75
710
892.875
976.5
1027.12
1117.5
1211.62
1324.75
1448.5
1489.25
1375.38
1160.38
997.5
939.875
927.125
1134.5
1608.12
1843.88
1481.75
927.75
657.875
519.125
387.5
212.625
42.125
0
0
0
0
0
0
0
0
0
0
0
0
0
0
0
0
0
0
0
0
0
0
0
0
0
0
0
0
0
0
0
0
0
0
0
0
0
0
0
1.375
-9.375
47.25
296.875
594.5
1042.88
1476
1295.5
777.5
519
518.75
562.5
639.125
708
778.625
866
823.375
665.375
552.25
528
536.375
527.875
489
447.125
437.875
532.625
809.25
1094.12
1175.75
1168.75
1140.88
1077.5
1039
860.375
620.875
622
765.75
845.375
861
945.5
1104.25
1054
710.5
486.875
539.875
594.625
650.625
797.375
870.75
864.875
945.25
1104.62
1309.12
1520.88
1524.75
1390.75
1344.62
1155.5
768.25
505.25
444.125
468.75
449
404.375
457.375
559.75
614.25
658.375
752.875
906.625
1090.88
1250.38
1361.62
1332.5
1132.62
903.5
758.75
695.125
875.625
1312.88
1492.62
1169.25
785.75
622.125
479.375
328.875
142.875
7
0
0
0
0
0
0
0
0
0
0
0
0
0
0
0
0
0
0
0
0
0
0
0
0
0
0
0
0
0
0
0
0
0
0
0
0
0
0
0
0
-16.625
22
255.875
533.75
877.75
1277.75
1198.88
737
496.875
515.375
637.125
836.25
937.25
933.375
942.875
852.25
671.375
561.625
536.625
510.875
472.625
438.625
413.75
419.625
544.75
835.25
1068.75
1075.12
971.125
848.625
697
579.625
462.625
447.25
627.125
730
661.625
632
798.625
1032.12
1038.5
672.5
358
517.5
765.25
786.875
725.75
670.5
698.5
788
853.875
1004.88
1301
1476.75
1474.75
1580.38
1561.88
1154.88
726.625
548.5
499.375
433.375
396.125
467.125
558.375
573.25
556.625
583.25
646.875
728.625
854.125
1070.88
1275.38
1306.75
1160.12
947.5
791.875
935.25
1335.38
1431.75
1057
701.5
557.625
423.625
274.125
101
0
0
0
0
0
0
0
0
0
0
0
0
0
0
0
0
0
0
0
0
0
0
0
0
0
0
0
0
0
0
0
0
0
0
0
0
0
0
0
0
0
-11.125
-18.125
144.75
408
671.125
1055.5
1135.62
801.5
582
668
971.375
1226.75
1190.12
983.75
823.5
684.25
570.375
525.25
502.875
459.25
418.75
412.125
427.75
426.375
536.375
791.875
888.375
723.375
525.5
424.5
353.5
297.5
293.625
416.75
619
652.375
494.25
419.375
603.625
881.125
1001.25
741.125
398.375
557.875
843.75
791.625
623.25
569.625
668.625
763.875
754.5
823.75
1241.38
1731.12
1887.25
1871.12
1777
1465.62
1020.75
685.5
510.25
426
422.25
500.875
566.5
560.75
525.5
555.5
627.75
654.875
708.5
918.5
1252.25
1519.38
1588.88
1438.88
1247.88
1349.62
1655.88
1588.88
1060.88
651.125
499.25
378.625
234.125
73.625
0
0
0
0
0
0
0
0
0
0
0
0
0
0
0
0
0
0
0
0
0
0
0
0
0
0
0
0
0
0
0
0
0
0
0
0
0
0
0
0
0
-2
-39.125
65.75
327.5
537.5
857.625
1090.25
976
823.125
960.125
1282.25
1347.25
1084.88
776.875
566.625
452.5
429.25
444.125
427.375
393.5
393.625
438.5
490.125
458.25
522.375
726.375
702.75
458.75
321.25
338.375
359.875
351.125
391
525.875
657.625
636.25
464.75
364.625
502.125
744.5
908.5
783.25
530
596.625
755
685.125
575.625
590
663.625
654.125
573.125
569.875
965.375
1659.88
2060.88
2026.88
1860.62
1652.75
1268.75
828.75
535.5
431.875
440.625
506.75
537.75
509
465.375
502.375
600.375
608.5
597.75
781.125
1169.62
1535.12
1734.38
1718.5
1656.62
1802.62
1998.5
1682.38
989.75
592.75
447.375
348.375
200.125
40.125
0
0
0
0
0
0
0
0
0
0
0
0
0
0
0
0
0
0
0
0
0
0
0
0
0
0
0
0
0
0
0
0
0
0
0
0
0
0
0
0
0
0
-35.375
39.375
305.25
520.875
736.75
1110.5
1345.12
1314.5
1325.5
1359.62
1129.75
765.375
530.125
408
354.125
362.875
392.375
378.625
347.75
371.875
443.625
497.25
444.5
446.5
561.625
518.125
370.125
374
482.375
535.75
534.75
563.625
640.625
673.875
622.875
504.125
407.125
465.5
616.375
734.375
699.375
585.875
603.5
669.625
618
537.5
561.375
587.375
490.375
359.25
305.75
527.625
1106.75
1673.38
1881.75
1866.75
1777.88
1445.38
943.625
560.625
415.75
412.375
461.5
470.5
428.875
407.75
439
495.5
496.625
478.25
612.625
932
1205.12
1321.88
1389.12
1560.5
1877
2078.75
1570.5
827.75
541.125
390.875
309.375
167.625
11.5
0
0
0
0
0
0
0
0
0
0
0
0
0
0
0
0
0
0
0
0
0
0
0
0
0
0
0
0
0
0
0
0
0
0
0
0
0
0
0
0
0
0
-16.375
29.125
282.5
544.875
729.625
1245
1813.75
1876
1593.12
1211.38
865.125
698.125
632.125
525
410.375
372.125
386.75
369.625
345.5
361.5
403.75
440.75
405.75
368.75
406.75
412.25
395.75
508.25
658.625
687
658
693.375
762
709.875
628.125
598.25
525.375
490.875
557.375
619.5
575.875
510.625
567.5
655.5
589.25
492.75
496
499.625
443.5
352.625
269.5
334
638.375
1086.12
1521.75
1763.88
1758.12
1453.25
942.25
538.5
396.375
395.25
423.375
425.125
392.875
404.375
434.75
438.5
434.375
419.875
470.25
673.125
848.625
860
948.5
1308.38
1838.75
2037.12
1360.25
668.25
496.75
348.25
257.625
121.875
0
0
0
0
0
0
0
0
0
0
0
0
0
0
0
0
0
0
0
0
0
0
0
0
0
0
0
0
0
0
0
0
0
0
0
0
0
0
0
0
0
0
0
0
24
209.75
455.375
639.375
1138
1873.62
2050.75
1518.75
894.75
686.625
810.5
813.5
608.875
415.125
368.375
385.75
368.25
352.25
358.75
378.875
411.625
402.75
358.5
359.125
390.125
443.375
557.875
640.75
652.875
700.5
834.75
903.75
739.25
595.25
651.625
666.125
608
623.875
644.25
530.25
433.375
556
659.375
576.875
536.75
516.75
476.125
493.875
485.5
416.375
409.625
535.5
743
1106.38
1486.12
1598.88
1363.88
874.125
473.75
374.5
400.75
410.5
410.875
408.5
447.75
468.625
416
388.75
389.75
422
593.25
753.375
745.625
827.125
1255.25
1892
1895.12
1095.75
571.25
445.375
340
238.625
79.625
0
0
0
0
0
0
0
0
0
0
0
0
0
0
0
0
0
0
0
0
0
0
0
0
0
0
0
0
0
0
0
0
0
0
0
0
0
0
0
0
0
0
0
0
6.375
82.125
263.875
462.125
771.5
1412.75
1780.5
1351.62
757
626.125
752.25
707.75
513.625
380.375
380.125
405.25
380.5
340.125
338.375
364.75
395.5
395.75
362.375
357
405.625
547.375
687.25
650.375
550.375
615
754.875
722.5
531.75
433.875
558.375
693.375
685.75
706.5
770
660.5
564.375
694.875
751.75
711.75
715
612
479.625
439
431.375
418.25
426
509.25
619.75
802.5
1145.88
1429.75
1328.25
832
426.75
355.375
369.625
362.125
377.5
420.375
507.875
574.5
532.875
472.875
449.125
481.375
600.125
673.125
678.25
835.75
1315.5
1861.12
1536.5
772.25
514.5
415.25
353.625
214.5
33
0
0
0
0
0
0
0
0
0
0
0
0
0
0
0
0
0
0
0
0
0
0
0
0
0
0
0
0
0
0
0
0
0
0
0
0
0
0
0
0
0
0
0
0
0
69.75
230.875
402
559.5
908.875
1421.12
1522.5
1176.75
886.75
754.75
686.5
639.375
586.25
540.125
493.875
423.625
344.375
319.5
340.5
366.25
365.875
350.75
359.5
425.875
654
877.875
804
560.75
508.375
563.5
462.625
369.25
415.375
522.75
615.125
622.5
708.5
862.5
817.5
804
921
903.625
915.125
962.5
806.5
526.125
330.625
290.5
312
340.25
397.125
481.375
605.5
828
1098.25
1091.62
686.75
387
360.625
355.125
339.875
351
401.25
515.5
649.625
732.875
738.5
661.5
628.625
681.625
678.375
681.875
947.625
1511.62
1770.25
1139.62
547.125
481.75
415.25
325.625
138.5
0
0
0
0
0
0
0
0
0
0
0
0
0
0
0
0
0
0
0
0
0
0
0
0
0
0
0
0
0
0
0
0
0
0
0
0
0
0
0
0
0
0
0
0
0
0
124.125
313.25
432
522.375
648.625
1162.62
1841.75
1926.62
1487.25
1031
796.25
742.125
692.625
596
491
404
338.75
304.5
313.625
337.25
341.875
349
362.5
393.125
550.5
725.25
696.875
545.5
540.875
608.625
514.875
459.875
600.875
699.625
623.625
533.375
639.75
824.875
870.125
984.5
1109
1059.12
1111.75
1191.75
994.5
608.875
352.25
316.875
337.5
348
347.5
362.75
445.625
539.5
638.375
626
432.75
344.125
427.625
506.375
481.625
392.625
367.875
451.25
564.875
710.75
852.125
863.375
808.875
815.75
833.375
884.625
1210.75
1760
1608.75
808.25
461.625
460
395.5
230
53.375
0
0
0
0
0
0
0
0
0
0
0
0
0
0
0
0
0
0
0
0
0
0
0
0
0
0
0
0
0
0
0
0
0
0
0
0
0
0
0
0
0
0
0
0
0
0
82
327.375
506
539.875
572.125
877.125
1722.38
2283.88
2008.88
1410.25
927.5
672.375
527.625
447.875
401
367.375
337
298.375
292.125
313.75
344.25
371.875
357.125
344.25
415
493
475.125
463.5
582.375
702.625
659.5
580.375
665.75
810.875
766.25
609.875
610.625
787.75
983.5
1163.88
1190
1076.75
1080
1057.5
851.75
647.875
610.75
650.375
617.375
517.625
403.625
327.625
343.25
368.5
359.875
317.5
276.875
320
494.25
719
764.5
622.25
479.625
445.25
473
557.125
691.375
835.5
938.625
954.125
957.25
1116.25
1497.88
1747
1211.25
531.25
426.875
450.375
364.25
145.875
5.5
0
0
0
0
0
0
0
0
0
0
0
0
0
0
0
0
0
0
0
0
0
0
0
0
0
0
0
0
0
0
0
0
0
0
0
0
0
0
0
0
0
0
0
0
0
0
18.875
261.875
538.375
594.75
562.875
593.625
1182.38
1988
2050
1462.5
914.625
611.25
436.5
386.875
399.25
400.75
370.875
327.125
316.875
339.5
378.75
388
336.125
318.75
424.625
572.375
588.5
584.25
655.375
673.875
666.75
657.875
658.25
789.25
936.75
867
709.5
821.875
1137.5
1290
1130.62
892.625
745.125
589.125
522
686
980.75
1113.88
965.25
690.875
450.875
310.75
289.75
302.5
277.25
244.5
247.125
289.25
411.875
636
841.625
918.25
828.5
679.5
589.875
567.875
588.5
707.875
927.375
1043
1081.62
1364.12
1769.38
1521.88
761.25
405
419.25
453
309.625
74.875
0
0
0
0
0
0
0
0
0
0
0
0
0
0
0
0
0
0
0
0
0
0
0
0
0
0
0
0
0
0
0
0
0
0
0
0
0
0
0
0
0
0
0
0
0
0
0
0
112.25
424.875
641.125
589.75
486.375
739.875
1460.62
1723.25
1175
667.75
483.625
401.125
369
369.625
370.75
368.25
377.625
388
400.75
423.25
387.625
321.625
319
494
816
914.625
829
770
680.625
665
706.125
692.5
754.125
968.875
1076.88
929.875
938.125
1199.75
1244.88
975.375
738.375
557.5
387.25
458.75
781.75
1109.75
1153.62
914.75
632.125
422.5
308.25
283.25
268.75
250.375
257.5
276.875
295.5
320.125
394.625
576.875
858.375
1050.5
1040
912.875
755.375
656.5
662.25
793.5
981.875
1194.62
1606.75
1822.12
1172.5
494
417.875
440
410.125
204
13.875
0
0
0
0
0
0
0
0
0
0
0
0
0
0
0
0
0
0
0
0
0
0
0
0
0
0
0
0
0
0
0
0
0
0
0
0
0
0
0
0
0
0
0
0
0
0
0
0
9.875
251.75
570.5
617.875
515.375
539.5
965.375
1345.38
1161.25
815.25
593.875
416.125
305.625
258.5
259.375
329.25
420.375
434
439.5
474.375
400
334.625
363
552.875
901
966.5
790.5
726
753.125
791
757.25
678
663.5
807.25
1047.62
1136.75
1161.38
1226.75
1098.25
877.625
854.25
836.75
731.625
749.75
907.375
996
867.75
678.875
550
426.625
344.75
308.75
254.5
248
302.875
341.5
346.25
319.75
290.75
331.125
538.75
892.5
1162.62
1184.88
1006.25
807.25
705.75
708.5
870.75
1179.62
1524.12
1348.75
684.5
399.375
450.5
432.625
279
79.125
0
0
0
0
0
0
0
0
0
0
0
0
0
0
0
0
0
0
0
0
0
0
0
0
0
0
0
0
0
0
0
0
0
0
0
0
0
0
0
0
0
0
0
0
0
0
0
0
0
0
85.5
362.25
597.125
590.5
504.5
603.375
930.375
1222.62
1256
966.125
578.625
347.75
245.5
241.875
366.5
495.75
479.875
488.375
546.125
434.625
363.5
423.875
576.125
786
749.625
592.375
627
766.75
834.875
792
725.125
675.375
694.75
892.125
1193.88
1401.62
1346.38
1061.88
931.5
1108.88
1276.12
1262.12
1145.25
1042.38
912.75
749.125
715
688.125
526.125
399.375
330.875
272.25
292.375
354.625
376.625
340.125
279.5
279.875
322.375
382.5
610.5
947.125
1155.25
1165.12
1057.5
995.25
1030.25
1133.75
1214.12
1094
684.25
386.75
428.75
468.25
347.375
130.875
7.875
0
0
0
0
0
0
0
0
0
0
0
0
0
0
0
0
0
0
0
0
0
0
0
0
0
0
0
0
0
0
0
0
0
0
0
0
0
0
0
0
0
0
0
0
0
0
0
0
0
0
0
178.375
494.25
636.875
570
481
579
970
1467.88
1444.38
913.625
502.25
330.375
345.375
543.625
679.375
608.625
603
623.5
472
402.875
484.875
619.125
733.625
688.125
610.375
637
685.5
703.5
756.625
835.125
815.5
719.75
753.875
1088.25
1511.75
1548.12
1199
977.75
1093.75
1359.75
1495.62
1388.62
1175.62
934.375
802.375
860.625
817
592.375
452
379.5
338.75
367.125
374.75
329.25
258.25
230.625
334.75
452.5
454.875
485.75
638.75
838
1053.12
1235.62
1416.38
1679.75
1743.25
1307.12
689.125
362.125
370.5
481.125
470.5
242.75
34.375
0
0
0
0
0
0
0
0
0
0
0
0
0
0
0
0
0
0
0
0
0
0
0
0
0
0
0
0
0
0
0
0
0
0
0
0
0
0
0
0
0
0
0
0
0
0
0
0
0
0
0
0
65.125
311.5
578
629.125
521.375
460.5
704.375
1403.5
1708
1133.5
567.375
377.5
480.5
821.125
965.5
819.75
740.875
655.875
487.25
435.25
515.75
669.75
805.875
839.125
782.625
656.75
567.875
581
683.25
845.625
926.75
818.125
708.875
959
1448.62
1578.88
1261.62
982.25
1019.25
1327.5
1521.5
1377
1138.25
962.375
901.5
932.625
816.625
591
507.375
468.25
433.125
460.625
425.875
307.375
227.5
265
434.25
616.875
669.375
610.125
549
589.125
841.625
1219.62
1605.25
1957.75
1819.25
1065.75
448
338.125
448.5
532.875
390.25
116
0
0
0
0
0
0
0
0
0
0
0
0
0
0
0
0
0
0
0
0
0
0
0
0
0
0
0
0
0
0
0
0
0
0
0
0
0
0
0
0
0
0
0
0
0
0
0
0
0
0
0
0
0
5.5
131
390.875
600.25
610.25
494.875
517.625
939.5
1342
1044.12
546.75
390
601
1065.75
1199.75
949.75
745.5
616.25
500.125
454.25
499.75
636.375
823.875
953.625
863.5
603.875
467.75
509.125
595.75
771.625
984.5
965.625
797.75
959.5
1376
1425.75
1136.88
993.5
1123.88
1426.62
1511.12
1210.25
1013.88
1054.88
1046.75
945.125
742.875
564.75
554.875
541.625
510.375
593.25
610.75
455.5
329.375
356.25
524
768.875
931
873
681.375
599.25
797.875
1161.12
1442.5
1406.75
1010.12
527.375
303.25
387.125
519.875
499.875
233.375
16
0
0
0
0
0
0
0
0
0
0
0
0
0
0
0
0
0
0
0
0
0
0
0
0
0
0
0
0
0
0
0
0
0
0
0
0
0
0
0
0
0
0
0
0
0
0
0
0
0
0
0
0
0
0
31
175.875
454.125
653.25
604
451.375
462.25
759.375
863.375
610.25
473.625
750.625
1191.5
1195.75
856.125
632.625
581.125
554.5
512
494.875
554.125
737.625
895.375
778.875
520.75
434.375
508.375
571
696.5
931.125
993.5
897.75
1093.5
1458.75
1435.88
1153.62
1033.62
1124.25
1319.5
1317.12
1062.25
1022.5
1165.38
1098
866.75
638.5
537.75
588.625
588.625
558.5
728
891.875
767.25
526.75
440.625
545
771.75
972.875
955.25
763.625
662.125
827.375
1100
1087.12
721.625
386.875
260.875
317.25
473.875
507.75
309.375
76.125
0
0
0
0
0
0
0
0
0
0
0
0
0
0
0
0
0
0
0
0
0
0
0
0
0
0
0
0
0
0
0
0
0
0
0
0
0
0
0
0
0
0
0
0
0
0
0
0
0
0
0
0
0
0
0
2
52.25
284.375
603.375
694.75
541.5
366.5
416.625
683.375
813
871.125
1141.88
1308.88
1067.38
712.25
579.5
638.125
706.5
673.125
562.75
543.5
690.375
788.875
659.25
477.75
514.875
668
686.75
680.25
799.75
865
933
1268
1571.12
1517.88
1382.12
1313.25
1212
1148.75
1076
967.75
1015.38
1115.12
1032.12
835.75
642.125
539.875
594.375
624.125
625.875
866
1157.5
1103.62
752
508
531
667.25
759.375
737.125
671.5
686.375
862.75
1016.88
856.375
547
359.625
334
459.5
560.75
401.125
115.25
0
0
0
0
0
0
0
0
0
0
0
0
0
0
0
0
0
0
0
0
0
0
0
0
0
0
0
0
0
0
0
0
0
0
0
0
0
0
0
0
0
0
0
0
0
0
0
0
0
0
0
0
0
0
0
0
0
10.5
144.125
425.125
650
635.625
444.5
308.375
467.125
882.125
1311.38
1566.38
1468.12
1092.75
721.25
597
687.5
765.75
739.25
639
618.625
706.875
713.625
585.375
473
573.875
762
794.5
792.5
858.625
883.375
1043.12
1421.25
1571.12
1482.75
1604
1728
1485.88
1152
974.5
918.75
967.875
1010.12
959.25
867.875
724.125
570
566.125
656.75
805.5
1087.88
1323
1259.88
879.875
584.875
614.75
707.125
670.75
615.375
678.375
815.625
951.75
943
698.75
439.75
363.125
447
577.5
515.75
222.625
23.75
0
0
0
0
0
0
0
0
0
0
0
0
0
0
0
0
0
0
0
0
0
0
0
0
0
0
0
0
0
0
0
0
0
0
0
0
0
0
0
0
0
0
0
0
0
0
0
0
0
0
0
0
0
0
0
0
0
0
37.125
183
414.125
579.375
541.5
381.75
345.125
621
1104.25
1426.38
1414.12
1193.75
913.875
730.25
671.625
626.875
617.875
660.875
696.625
689.625
615.375
502.625
440.375
515.375
667.75
788.25
909.125
995.75
986.375
1161.12
1482.25
1466.5
1368.25
1650.5
1877.25
1588
1151.12
958
969.25
1008.88
951.125
850.5
795.5
745
625.5
567.125
702.75
1016.12
1312.38
1386.88
1245.38
904.25
685.125
774.75
843.625
766.25
753.75
881.875
988.5
981.75
768.125
418
270.75
368.375
531.375
590.875
340.375
58
0
0
0
0
0
0
0
0
0
0
0
0
0
0
0
0
0
0
0
0
0
0
0
0
0
0
0
0
0
0
0
0
0
0
0
0
0
0
0
0
0
0
0
0
0
0
0
0
0
0
0
0
0
0
0
0
0
0
0
0
34.625
124.75
320.375
511.75
489.25
372
376.375
593.875
897.25
1082.25
1175.75
1180.88
1010.62
747.75
565.125
547.75
644.5
698.5
635.25
519.25
450.25
459.5
505
593.5
764.375
955.75
994.5
892.375
1060
1382.62
1327.62
1195.25
1438
1657
1403.88
1046
978.5
1060
1008.25
817.875
672.75
643.375
693.625
679.625
630.875
747.25
1087.25
1406.25
1437.75
1221.75
891.375
743.75
849.875
908.5
881.25
937.5
1044.75
998.75
732.5
371.75
178.625
253.5
428
598.875
495.5
154.125
0
0
0
0
0
0
0
0
0
0
0
0
0
0
0
0
0
0
0
0
0
0
0
0
0
0
0
0
0
0
0
0
0
0
0
0
0
0
0
0
0
0
0
0
0
0
0
0
0
0
0
0
0
0
0
0
0
0
0
0
0
2.22045e-16
2.375
106.125
365
514.375
432
330.75
354.75
438
497.625
741
1089.12
1134.75
899.25
667.375
579.25
583.25
607.25
601
513.875
474.25
544.375
591.25
630.5
788.75
991.75
982.125
842.375
1034.75
1380.25
1337.75
1094.88
1096
1198.38
1084.5
957.25
981.5
959
782
607.25
532.75
559.75
667.125
730.5
727.625
784.75
1057.5
1433.12
1532.12
1230
846.625
728
836.75
931.25
976.125
1065
1056.12
749.75
322.375
106.875
161.25
317.5
493.625
569.875
305.5
32.125
0
0
0
0
0
0
0
0
0
0
0
0
0
0
0
0
0
0
0
0
0
0
0
0
0
0
0
0
0
0
0
0
0
0
0
0
0
0
0
0
0
0
0
0
0
0
0
0
0
0
0
0
0
0
0
0
0
0
0
0
0
0
0.25
32.125
227.625
498.875
541
390.25
283.5
201.875
86
216.75
699
1033.12
1000.88
836.5
650.875
479.75
468.125
608
611.625
583.875
669.25
687.625
680.875
811.75
982.75
994.375
991.25
1212.12
1490.38
1437.38
1069.75
837.375
833.5
866.875
913.75
900.25
738.375
586.125
588.625
622.375
687.5
789.75
834.625
823.125
791.375
954.75
1375.12
1625.88
1367
930.125
780.75
893.875
1013
1051.75
1076.38
881.625
416.25
130.125
139.75
244.125
393.125
544
398.625
94.375
0
0
0
0
0
0
0
0
0
0
0
0
0
0
0
0
0
0
0
0
0
0
0
0
0
0
0
0
0
0
0
0
0
0
0
0
0
0
0
0
0
0
0
0
0
0
0
0
0
0
0
0
0
0
0
0
0
0
0
0
0
0
0
0
3.375
94.5
478.25
851.75
705.5
349.25
173.875
86.125
31
323.5
793.75
937.375
803.125
477.375
92
170.625
654
799.75
769.125
827.625
729.5
600.375
686.875
871.5
970.125
1069.25
1227.38
1451.12
1435
1025.62
712.25
673.75
738.625
812.625
795.5
672.125
704.25
909.75
948.25
936.625
987
992.125
947.625
837
843
1183.38
1625.12
1631.12
1235
976
967.5
1024
1015.25
883.625
577.875
251.625
162
230.75
370.375
525
448.625
155.875
0
0
0
0
0
0
0
0
0
0
0
0
0
0
0
0
0
0
0
0
0
0
0
0
0
0
0
0
0
0
0
0
0
0
0
0
0
0
0
0
0
0
0
0
0
0
0
0
0
0
0
0
0
0
0
0
0
0
0
0
0
0
0
0
0
0
9.625
254.5
902.125
1156.88
658.625
236.875
167
123.5
174.75
458.5
582.875
224.625
-426
-848.875
-294.75
773.25
1006.5
845.5
849.875
720.25
527
492.75
665
852.875
968.125
1116.75
1363.88
1308.75
953
736.375
733.875
819.375
864.625
853.125
804.75
1016.88
1315.25
1217
1093.25
1133.88
1174.88
1210.62
1135.12
975.375
1038.5
1408.38
1568.75
1291.38
904.75
641.375
613.25
660.75
545
345.375
235.875
266.25
443.25
658.125
571.875
211
10.75
0
0
0
0
0
0
0
0
0
0
0
0
0
0
0
0
0
0
0
0
0
0
0
0
0
0
0
0
0
0
0
0
0
0
0
0
0
0
0
0
0
0
0
0
0
0
0
0
0
0
0
0
0
0
0
0
0
0
0
0
0
0
0
0
0
0
0
26
364
918.5
872.625
409
266.125
317.625
330.5
377.125
318
-314.5
-1158.12
-1232.5
-125
1036.62
1007.88
706.75
790.625
873.375
757.125
553.5
560.125
701.5
800.375
1021.88
1233.12
992.375
822
977.375
1131.25
1190.5
1153.12
1117
1090
1344.12
1510.12
1238.25
1127.62
1217.5
1300.38
1417.25
1417.5
1213.5
1053.25
1095.5
1065.25
774.625
309
44.625
206.125
389.75
360.125
289.625
295.625
494.25
860.5
819.5
334
42.625
0
0
0
0
0
0
0
0
0
0
0
0
0
0
0
0
0
0
0
0
0
0
0
0
0
0
0
0
0
0
0
0
0
0
0
0
0
0
0
0
0
0
0
0
0
0
0
0
0
0
0
0
0
0
0
0
0
0
0
0
0
0
0
0
0
0
0
0
0
0
241.5
552.5
525.5
401
387.625
421.125
427.125
278.25
-420.125
-1159
-920
152.5
882.625
717.375
525.5
765.625
1136.62
1137.5
813.875
652.5
604
579.5
818.625
921
623.375
756
1278.25
1532.12
1485
1425.88
1420.12
1402.38
1532.62
1425
1093.75
1081.12
1188.25
1222.5
1252.75
1267
1219.38
1115.5
894.875
521.75
177.125
-54.25
6.75
304.125
432.5
387.25
362.625
440.375
678
772.375
418.375
67.625
0
0
0
0
0
0
0
0
0
0
0
0
0
0
0
0
0
0
0
0
0
0
0
0
0
0
0
0
0
0
0
0
0
0
0
0
0
0
0
0
0
0
0
0
0
0
0
0
0
0
0
0
0
0
0
0
0
0
0
0
0
0
0
0
0
0
0
0
0
0
0
0
124.5
324.375
393.5
384
381.625
368.75
270.375
-221.5
-913.5
-879
-242.375
214.625
382.75
435.875
617.125
981
1042.25
798.75
746.5
576.125
336.5
480.75
585.625
563.5
880.625
1300.5
1367.62
1261.75
1324.12
1424.5
1474.5
1407.12
1056.88
782.375
822.125
933
948.375
892.375
885.75
928.125
888.5
648.625
317.25
98.875
105.75
312.375
442.5
435.25
440.875
473.375
499.25
458.125
229.875
25.25
0
0
0
0
0
0
0
0
0
0
0
0
0
0
0
0
0
0
0
0
0
0
0
0
0
0
0
0
0
0
0
0
0
0
0
0
0
0
0
0
0
0
0
0
0
0
0
0
0
0
0
0
0
0
0
0
0
0
0
0
0
0
0
0
0
0
0
0
0
0
0
0
0
0
60.625
166.75
243.75
290.5
323.625
317.875
141.375
-276.75
-410.75
-201
31
293.5
363.625
368
528.75
623.25
581.75
648.125
537.75
282.125
268.75
352.375
493.25
737.25
858.375
764.25
807.75
1019.88
1094.38
1061.38
855.875
558.625
456.125
502.625
639.25
726.375
681.375
618.875
575.5
531.25
500
500
354.125
259.75
369
386.125
370.75
422.625
412.125
279
107.625
13
0
0
0
0
0
0
0
0
0
0
0
0
0
0
0
0
0
0
0
0
0
0
0
0
0
0
0
0
0
0
0
0
0
0
0
0
0
0
0
0
0
0
0
0
0
0
0
0
0
0
0
0
0
0
0
0
0
0
0
0
0
0
0
0
0
0
0
0
0
0
0
0
0
0
0
0
18.125
69.875
155.5
259.375
322.25
297.375
187.5
98.375
120.25
261.625
430.625
453.5
386.625
369.25
436.5
511.25
496
395.625
262.75
162.625
122.625
159.375
282.375
341.5
348
553.875
746.625
657.625
459.5
294.875
318.75
490.75
580.25
629.375
667.125
640.75
575.875
525.75
526
558.625
526.375
340.625
230.75
287.375
324.625
332.625
278.875
162.375
50.5
0
0
0
0
0
0
0
0
0
0
0
0
0
0
0
0
0
0
0
0
0
0
0
0
0
0
0
0
0
0
0
0
0
0
0
0
0
0
0
0
0
0
0
0
0
0
0
0
0
0
0
0
0
0
0
0
0
0
0
0
0
0
0
0
0
0
0
0
0
0
0
0
0
0
0
0
0
0
0
5.125
42.125
135.375
237.25
267.75
191.5
76.875
81.5
198.875
340.5
502.875
599.25
577.125
580.875
658.125
620.375
477.375
344.375
209.375
110
85.5
133.75
166.875
186.875
298.5
364
273.25
168.25
175.125
369.75
607.375
695.125
680.875
665
673.625
663.625
603.75
504.25
374.875
225.625
137.375
159.75
234.25
270
208.875
86.875
11.5
0
0
0
0
0
0
0
0
0
0
0
0
0
0
0
0
0
0
0
0
0
0
0
0
0
0
0
0
0
0
0
0
0
0
0
0
0
0
0
0
0
0
0
0
0
0
0
0
0
0
0
0
0
0
0
0
0
0
0
0
0
0
0
0
0
0
0
0
0
0
0
0
0
0
0
0
0
0
0
0
0
0
29.625
87.75
118.875
80.75
39.75
78
105.375
105.5
235.375
434
530.125
573.75
644.125
663.125
603.375
525.625
434.25
364.5
341.5
340.75
309.125
250.875
246.75
269.25
268.125
281.5
347.5
469.25
563.375
613.625
656.625
652.5
611.25
527.25
364.125
173.75
39.75
33.5
132.375
191.125
174.875
125.25
45.375
0
0
0
0
0
0
0
0
0
0
0
0
0
0
0
0
0
0
0
0
0
0
0
0
0
0
0
0
0
0
0
0
0
0
0
0
0
0
0
0
0
0
0
0
0
0
0
0
0
0
0
0
0
0
0
0
0
0
0
0
0
0
0
0
0
0
0
0
0
0
0
0
0
0
0
0
0
0
0
0
0
0
0
0
0
1.875
5.375
-10
-3.25
125.875
257.25
226.75
155.5
144.125
138
154.625
241.75
319.625
350.125
368.75
363
349.125
351.625
376.25
394.375
387.5
402.25
434.125
447.875
452
477.125
513
504
478.375
453.25
373.125
254.625
127.25
16.125
-23.75
7.375
101.875
188.25
152.75
58.375
9.75
0
0
0
0
0
0
0
0
0
0
0
0
0
0
0
0
0
0
0
0
0
0
0
0
0
0
0
0
0
0
0
0
0
0
0
0
0
0
0
0
0
0
0
0
0
0
0
0
0
0
0
0
0
0
0
0
0
0
0
0
0
0
0
0
0
0
0
0
0
0
0
0
0
0
0
0
0
0
0
0
0
0
0
0
0
0
0
0
-6.5
-15.375
64.75
226.75
311
282.75
202.375
88
2.125
53.375
162.625
228
251.5
223.875
178
154.625
188.25
245
270.25
291.875
318.375
322.125
316
342.375
373
323.875
208.75
93.625
11.875
-19.75
-12.125
36
88.875
99.5
102.875
88.875
36.5
3
0
0
0
0
0
0
0
0
0
0
0
0
0
0
0
0
0
0
0
0
0
0
0
0
0
0
0
0
0
0
0
0
0
0
0
0
0
0
0
0
0
0
0
0
0
0
0
0
0
0
0
0
0
0
0
0
0
0
0
0
0
0
0
0
0
0
0
0
0
0
0
0
0
0
0
0
0
0
0
0
0
0
0
0
0
0
0
0
0
0
0
4.625
44.25
112.25
166.125
179.625
131.75
78.75
120
201.75
258.875
305.125
312.625
276.375
229
223.25
231.25
202
179.75
189.125
203.75
223.25
268.5
305.375
266.125
159.875
61.375
31.125
54.875
83.5
115
108.375
50.875
10.875
1.125
0
0
0
0
0
0
0
0
0
0
0
0
0
0
0
0
0
0
0
0
0
0
0
0
0
0
0
0
0
0
0
0
0
0
0
0
0
0
0
0
0
0
0
0
0
0
0
0
0
0
0
0
0
0
0
0
0
0
0
0
0
0
0
0
0
0
0
0
0
0
0
0
0
0
0
0
0
0
0
0
0
0
0
0
0
0
0
0
0
0
0
0
0
0
0
0
10.5
26.5
27.75
33.5
64.125
85.875
99.5
152.125
222.125
244.75
217.875
192.375
198.875
213.5
223
242.25
249.125
256.875
284.25
294.875
275
207.5
115.625
76.125
72
53.5
31.5
11.5
0
0
0
0
0
0
0
0
0
0
0
0
0
0
0
0
0
0
0
0
0
0
0
0
0
0
0
0
0
0
0
0
0
0
0
0
0
0
0
0
0
0
0
0
0
0
0
0
0
0
0
0
0
0
0
0
0
0
0
0
0
0
0
0
0
0
0
0
0
0
0
0
0
0
0
0
0
0
0
0
0
0
0
0
0
0
0
0
0
0
0
0
0
0
0
0
0
0
0
0
0
0
0
0
-0.875
-4.625
5.25
34.5
49.125
37.625
1.25
6.875
69.125
108.625
127.125
122.125
106.875
107.125
104.625
101.375
75.25
24.75
1.5
0.875
0
0
0
0
0
0
0
0
0
0
0
0
0
0
0
0
0
0
0
0
0
0
0
0
0
0
0
0
0
0
0
0
0
0
0
0
0
0
0
0
0
0
0
0
0
0
0
0
0
0
0
0
0
0
0
0
0
0
0
0
0
0
0
0
0
0
0
0
0
0
0
0
0
0
0
0
0
0
0
0
0
0
0
0
0
0
0
0
0
0
0
0
0
0
0
0
0
0
0
0
0
0
0
0
0
0
0
0
0
0
0
0
0
-21
-32.125
-11
-1.625
-3
-3.5
-6
-7.25
-5.375
-1.875
0
0
0
0
0
0
0
0
0
0
0
0
0
0
0
0
0
0
0
0
0
0
0
0
0
0
0
0
0
0
0
0
0
0
0
0
0
0
0
0
0
0
0
0
0
0
0
0
0
0
0
0
0
0
0
0
0
0
0
0
0
0
0
0
0
0
0
0
0
0
0
0
0
0
0
0
0
0
0
0
0
0
0
0
0
0
0
0
0
0
0
0
0
0
0
0
0
0
0
0
0
0
0
0
0
0
0
0
0
0
0
0
0
0
0
0
0
0
0
0
0
0
0
0
0
0
0
0
0
0
0
0
0
0
0
0
0
0
0
0
0
0
0
0
0
0
0
0
0
0
0
0
0
0
0
0
0
0
0
0
0
0
0
0
0
0
0
0
0
0
0
0
0
0
0
0
0
0
0
0
0
0
0
0
0
0
0
0
0
0
0
0
0
0
0
0
0
0
0
0
0
0
0
0
0
0
0
0
0
0
0
0
0
0
0
0
0
0
0
0
0
0
0
0
0
0
0
0
0
0
0
0
0
0
0
0
0
0
0
0
0
0
0
0
0
0
0
0
0
0
0
0
0
0
0
0
0
0
0
0
0
0
0
0
0
0
0
0
0
0
0
0
0
0
0
0
0
0
0
0
0
0
0
0
0
0
0
0
0
0
0
0
0
0
0
0
0
0
0
0
0
0
0
0
0
0
0
0
0
0
0
0
0
0
0
0
0
0
0
0
0
0
0
0
0
0
0
0
0
0
0
0
0
0
0
0
0
0
0
0
0
0
0
0
0
0
0
0
0
0
0
0
0
0
0
0
0
0
0
0
0
0
0
0
0
0
0
0
0
0
0
0
0
0
0
0
0
0
0
0
0
0
0
0
0
0
0
0
0
0
0
0
0
0
0
0
0
0
0
0
0
0
0
0
0
0
0
0
0
0
0
0
0
0
0
0
0
0
0
0
0
0
0
0
0
0
0
0
0
0
0
0
0
0
0
0
0
0
0
0
0
0
0
0
0
0
0
0
0
0
0
0
0
0
0
0
0
0
0
0
0
0
0
0
0
0
0
0
0
0
0
0
0
0
0
0
0
0
0
0
0
0
0
0
0
0
0
0
0
0
0
0
0
0
0
0
0
0
0
0
0
0
0
0
0
0
0
0
0
0
0
0
0
0
0
0
0
0
0
0
0
0
0
0
0
0
0
0
0
0
0
0
0
0
0
0
0
0
0
0
0
0
0
0
0
0
0
0
0
0
0
0
0
0
0
0
0
0
0
0
0
0
0
0
0
0
0
0
0
0
0
0
0
0
0
0
0
0
0
0
0
0
0
0
0
0
0
0
0
0
0
0
0
0
0
0
0
0
0
0
0
0
0
0
0
0
0
0
0
0
0
0
0
0
0
0
0
0
0
0
0
0
0
0
0
0
0
0
0
0
0
0
0
0
0
0
0
0
0
0
0
0
0
0
0
0
0
0
0
0
0
0
0
0
0
0
0
0
0
0
0
0
0
0
0
0
0
0
0
0
0
0
0
0
0
0
0
0
0
0
0
0
0
0
0
0
0
0
0
0
0
0
0
0
0
0
0
0
0
0
0
0
0
0
0
0
0
0
0
0
0
0
0
0
0
0
0
0
0
0
0
0
0
0
0
0
0
0
0
0
0
0
0
0
0
0
0
0
0
0
0
0
0
0
0
0
0
0
0
0
0
0
0
0
0
0
0
0
0
0
0
0
0
0
0
0
0
0
0
0
0
0
0
0
0
0
0
0
0
0
0
0
0
0
0
0
0
0
0
0
0
0
0
0
0
0
0
0
0
0
0
0
0
0
0
0
0
0
0
0
0
0
0
0
0
0
0
0
0
0
0
0
0
0
0
0
0
0
0
0
0
0
0
0
0
0
0
0
0
0
0
0
0
0
0
0
0
0
0
0
0
0
0
0
0
0
0
0
0
0
0
0
0
0
0
0
0
0
0
0
0
0
0
0
0
0
0
0
0
0
0
0
0
0
0
0
0
0
0
0
0
0
0
0
0
0
0
0
0
0
0
0
0
0
0
0
0
0
0
0
0
0
0
0
0
0
0
0
0
0
0
0
0
0
0
0
0
0
0
0
0
0
0
0
0
0
0
0
0
0
0
0
0
0
0
0
0
0
0
0
0
0
0
0
0
0
0
0
0
0
0
0
0
0
0
0
0
0
0
0
0
0
0
0
0
0
0
0
0
0
0
0
0
0
0
0
0
0
0
0
0
0
0
0
0
0
0
0
0
0
0
0
0
0
0
0
0
0
0
0
0
0
0
0
0
0
0
0
0
0
0
0
0
0
0
0
0
0
0
0
0
0
0
0
0
0
0
0
0
0
0
0
0
0
0
0
0
0
0
0
0
0
0
0
0
0
0
0
0
0
0
0
0
0
0
0
0
0
0
0
0
0
0
0
0
0
0
0
0
0
0
0
0
0
0
0
0
0
0
0
0
0
0
0
0
0
0
0
0
0
0
0
0
0
0
0
0
0
0
0
0
0
0
0
0
0
0
0
0
0
0
0
0
0
0
0
0
0
0
0
0
0
0
0
0
0
0
0
0
0
0
0
0
0
0
0
0
0
0
0
0
0
0
0
0
0
0
0
0
0
0
0
0
0
0
0
0
0
0
0
0
0
0
0
0
0
0
0
0
0
0
0
0
0
0
0
0
0
0
0
0
0
0
0
0
0
0
0
0
0
0
0
0
0
0
0
0
0
0
0
0
0
0
0
0
0
0
0
0
0
0
0
0
0
0
0
0
0
0
0
0
0
0
0
0
0
0
0
0
0
0
0
0
0
0
0
0
0
0
0
0
0
0
0
0
0
0
0
0
0
0
0
0
0
0
0
0
0
0
0
0
0
0
0
0
0
0
0
0
0
0
0
0
0
0
0
0
0
0
0
0
0
0
0
0
0
0
0
0
0
0
0
0
0
0
0
0
0
0
0
0
0
0
0
0
0
0
0
0
0
0
0
0
0
0
0
