pressure[Pa]
29.9857
29.4054
28.641
27.8875
27.1424
26.4083
25.6857
24.9747
24.2756
23.5794
22.8845
22.2012
21.5349
20.8898
20.2744
19.6912
19.1369
18.604
18.0817
17.5632
17.0462
16.5317
16.0198
15.5069
14.9902
14.467
13.9343
13.3903
12.8345
12.2678
11.6922
11.1105
10.5275
9.95168
9.38959
8.84299
8.31619
7.81346
7.33255
6.86912
6.41804
5.97119
5.52325
5.07753
4.6438
4.23714
3.86396
3.50706
3.15138
2.80407
2.47742
2.17556
1.8939
1.62461
1.36626
1.12606
0.908891
0.712137
0.530581
0.359395
0.191253
0.0154497
-0.177722
-0.387701
-0.60173
-0.806951
-0.988674
-1.12942
-1.21938
-1.25009
-1.21327
-1.12202
-1.00778
-0.892512
-0.778772
-0.648173
-0.465463
-0.205951
0.120649
0.487735
0.881188
1.29603
1.72381
2.15754
2.59267
3.0292
3.47545
3.9364
4.41143
4.89837
5.38912
5.86974
6.33736
6.81051
7.30979
7.84574
8.42148
9.03852
9.69502
10.3801
11.0855
11.8099
12.5489
13.2957
14.0471
14.8041
15.5699
16.3472
17.1343
17.9285
18.7317
19.55
20.3905
21.2572
22.1477
23.0579
23.986
24.931
25.8908
26.8621
27.8427
28.8314
29.8264
30.8262
31.8302
32.5851
29.3104
28.7252
27.9543
27.1958
26.4469
25.7077
24.979
24.2625
23.5588
22.8606
22.1641
21.4765
20.8036
20.151
19.5259
18.9326
18.3708
17.8334
17.3087
16.7895
16.2726
15.7573
15.2448
14.7325
14.2167
13.6952
13.165
12.6245
12.0721
11.5083
10.9351
10.3549
9.77198
9.19373
8.62764
8.07679
7.54476
7.03614
6.55011
6.08281
5.62943
5.18194
4.73393
4.28716
3.8501
3.43755
3.05867
2.69974
2.34389
1.99494
1.66519
1.35997
1.07612
0.805978
0.546883
0.304952
0.0855365
-0.113176
-0.296254
-0.468604
-0.637351
-0.812721
-1.00425
-1.21211
-1.42588
-1.63237
-1.8148
-1.95652
-2.04763
-2.07899
-2.04318
-1.9527
-1.83872
-1.72429
-1.61127
-1.47791
-1.28689
-1.01813
-0.685755
-0.314333
0.0840218
0.502872
0.932585
1.36689
1.80237
2.24042
2.68893
3.1522
3.62982
4.11815
4.60763
5.08514
5.55194
6.02942
6.53742
7.08445
7.67326
8.30399
8.97029
9.66252
10.3756
11.1061
11.8482
12.5967
13.3504
14.1111
14.8816
15.6631
16.4543
17.2531
18.0629
18.8915
19.745
20.6243
21.5255
22.4457
23.3837
24.3375
25.3044
26.2816
27.2675
28.2603
29.2587
30.2616
31.2683
32.0248
28.4129
27.8214
27.0422
26.2764
25.5218
24.7764
24.0409
23.3165
22.6051
21.9041
21.2057
20.5119
19.8313
19.1692
18.5314
17.925
17.3521
16.8069
16.2784
15.7582
15.2409
14.7248
14.2115
13.6995
13.185
12.6658
12.1391
11.6026
11.0544
10.4945
9.92446
9.3467
8.76452
8.18384
7.61285
7.05627
6.51702
6.00046
5.50765
5.03512
4.57831
4.12953
3.68144
3.2336
2.7923
2.37201
1.98551
1.6238
1.26806
0.917243
0.583236
0.27344
-0.0136183
-0.285149
-0.545067
-0.789136
-1.01155
-1.21303
-1.39851
-1.57268
-1.74223
-1.91703
-2.10643
-2.31153
-2.52488
-2.73297
-2.9165
-3.05966
-3.15228
-3.18426
-3.14956
-3.06029
-2.94705
-2.83383
-2.72124
-2.58365
-2.38169
-2.10078
-1.76052
-1.38316
-0.978592
-0.554591
-0.121354
0.314101
0.749328
1.18928
1.64143
2.10815
2.58908
3.07859
3.56486
4.03786
4.50545
4.99083
5.5119
6.0747
6.68037
7.32779
8.00722
8.70939
9.43164
10.169
10.9148
11.666
12.423
13.1889
13.966
14.7537
15.5499
16.3555
17.1768
18.0211
18.892
19.7871
20.7025
21.6362
22.5868
23.5514
24.527
25.5116
26.5037
27.5015
28.5042
29.511
30.5208
31.2795
27.5217
26.9235
26.1355
25.3615
24.6003
23.8494
23.1075
22.3755
21.6559
20.9497
20.2488
19.5505
18.8631
18.1917
17.5423
16.9227
16.3369
15.7822
15.2493
14.7273
14.2091
13.6923
13.1781
12.6661
12.1528
11.6356
11.1118
10.5786
10.0346
9.47894
8.91258
8.3377
7.75696
7.17519
6.60024
6.03816
5.49203
4.96733
4.46715
3.98873
3.52776
3.07713
2.62898
2.18073
1.73629
1.30865
0.913605
0.548392
0.19287
-0.159774
-0.498123
-0.812419
-1.10278
-1.37587
-1.63647
-1.88251
-2.10805
-2.31254
-2.50068
-2.67685
-2.84722
-3.02153
-3.20891
-3.41144
-3.62433
-3.83375
-4.01887
-4.16377
-4.25745
-4.28948
-4.25554
-4.16784
-4.05592
-3.94384
-3.83073
-3.68807
-3.47565
-3.18283
-2.8339
-2.4501
-2.03988
-1.61186
-1.17541
-0.738322
-0.302967
0.138868
0.594648
1.06495
1.54873
2.03873
2.52116
2.99049
3.46159
3.95742
4.49302
5.07301
5.69602
6.35772
7.04857
7.76114
8.49175
9.23405
9.98278
10.737
11.4985
12.2706
13.0542
13.8475
14.6497
15.4649
16.3006
17.1623
18.05
18.9601
19.8897
20.8369
21.799
22.7727
23.7558
24.7469
25.7443
26.7465
27.7533
28.7634
29.776
30.5368
26.6371
26.0317
25.2343
24.4517
23.6831
22.9263
22.1784
21.4396
20.712
19.9979
19.2938
18.5928
17.8984
17.2185
16.5589
15.9258
15.3259
14.7607
14.2218
13.6966
13.1773
12.6604
12.1452
11.6328
11.1203
10.6045
10.0831
9.55328
9.01351
8.46224
7.89966
7.32772
6.74892
6.16724
5.58929
5.02219
4.46982
3.93727
3.42928
2.94432
2.47854
2.02549
1.57685
1.12839
0.682222
0.248404
-0.156084
-0.526625
-0.882777
-1.237
-1.57928
-1.89799
-2.19168
-2.46634
-2.72764
-2.97566
-3.20444
-3.41205
-3.60285
-3.78108
-3.95221
-4.12604
-4.3116
-4.5119
-4.7243
-4.93465
-5.12178
-5.26886
-5.36307
-5.39461
-5.36116
-5.2752
-5.16498
-5.05401
-4.93982
-4.79155
-4.5688
-4.26405
-3.90543
-3.51435
-3.09867
-2.6677
-2.22966
-1.79152
-1.35487
-0.910847
-0.452011
0.022021
0.508205
0.997532
1.4762
1.94354
2.41999
2.92807
3.47952
4.07712
4.71812
5.39386
6.09508
6.81724
7.55475
8.30074
9.05227
9.81006
10.5771
11.356
12.1461
12.9451
13.7552
14.5833
15.436
16.3154
17.2192
18.144
19.0876
20.0471
21.0189
22.0003
22.9902
23.9869
24.9888
25.9951
27.0053
28.0183
29.0338
29.7969
25.76
25.1463
24.3392
23.5475
22.7704
22.0067
21.2533
20.5084
19.7731
19.0508
18.3417
17.6374
16.9372
16.2499
15.5805
14.9346
14.3207
13.7429
13.1955
12.6664
12.146
11.6288
11.1128
10.5995
10.0874
9.57286
9.05363
8.52721
7.9912
7.44396
6.88523
6.31648
5.7402
5.15943
4.5794
4.00792
3.44985
2.90964
2.39351
1.90175
1.43065
0.974599
0.525144
0.0764972
-0.371062
-0.81009
-1.22344
-1.60099
-1.95915
-2.31433
-2.66
-2.98326
-3.28048
-3.5569
-3.81906
-4.06893
-4.30081
-4.51155
-4.70503
-4.8853
-5.05718
-5.23044
-5.41448
-5.61312
-5.82485
-6.03549
-6.2245
-6.37404
-6.46884
-6.49991
-6.46694
-6.38252
-6.27402
-6.16416
-6.04877
-5.89423
-5.66013
-5.34346
-4.97558
-4.57708
-4.1555
-3.72113
-3.28243
-2.84463
-2.40637
-1.95941
-1.49751
-1.01966
-0.531599
-0.0448112
0.429584
0.897049
1.38138
1.90393
2.47323
3.08871
3.74586
4.43476
5.14677
5.87748
6.61989
7.36881
8.12361
8.88619
9.65991
10.4457
11.2416
12.0477
12.8688
13.7124
14.5833
15.4801
16.3995
17.3391
18.2955
19.2653
20.2453
21.2337
22.2294
23.231
24.237
25.2469
26.26
27.2759
28.2944
29.0596
24.8925
24.2688
23.4503
22.649
21.8629
21.0913
20.3319
19.5814
18.8394
18.1091
17.3922
16.6841
15.9803
15.2852
14.6061
13.9492
13.3214
12.7291
12.1714
11.6375
11.1152
10.597
10.0803
9.56607
9.05403
8.54063
8.02337
7.49971
6.96695
6.4238
5.86935
5.30423
4.73075
4.15146
3.57067
2.99575
2.43249
1.88502
1.36027
0.860913
0.383712
-0.0759245
-0.526263
-0.974959
-1.42378
-1.86728
-2.28876
-2.67433
-3.03543
-3.39105
-3.73965
-4.06763
-4.36896
-4.64781
-4.91113
-5.16238
-5.39691
-5.61091
-5.80715
-5.98944
-6.16213
-6.33483
-6.51765
-6.71528
-6.92599
-7.13609
-7.32674
-7.47888
-7.5748
-7.60604
-7.57362
-7.49016
-7.38302
-7.2742
-7.15751
-6.99547
-6.74815
-6.42015
-6.0446
-5.63936
-5.21214
-4.7738
-4.33412
-3.89722
-3.45772
-3.00732
-2.5418
-2.06063
-1.57154
-1.0883
-0.617834
-0.147422
0.347829
0.886268
1.47418
2.10861
2.78073
3.4809
4.20297
4.94055
5.68664
6.43857
7.19729
7.96584
8.7468
9.53929
10.3417
11.157
11.9923
12.8536
13.7426
14.6562
15.5912
16.5445
17.5119
18.4903
19.4774
20.4721
21.4731
22.4789
23.4884
24.5013
25.5175
26.5364
27.5575
28.3246
24.0347
23.4
22.5686
21.7567
20.9611
20.1808
19.4143
18.6582
17.9104
17.1725
16.4472
15.7342
15.0264
14.3243
13.637
12.9694
12.3277
11.7206
11.1509
10.6102
10.0845
9.56519
9.04828
8.53319
8.02073
7.50817
6.99236
6.47096
5.94153
5.40252
4.85229
4.2908
3.72018
3.14298
2.5626
1.98495
1.41704
0.863378
0.330238
-0.177362
-0.661269
-1.1254
-1.57744
-2.02646
-2.47599
-2.92238
-3.35137
-3.74618
-4.111
-4.4666
-4.81761
-5.15034
-5.45648
-5.73857
-6.00345
-6.25572
-6.49234
-6.70944
-6.90853
-7.09307
-7.26691
-7.43925
-7.62099
-7.81784
-8.02718
-8.23623
-8.42858
-8.5836
-8.68123
-8.71318
-8.68112
-8.59807
-8.492
-8.38413
-8.26588
-8.09517
-7.83329
-7.49423
-7.11157
-6.69986
-6.26803
-5.82672
-5.38611
-4.94966
-4.50932
-4.05561
-3.58561
-3.10154
-2.61264
-2.13301
-1.66497
-1.18926
-0.680715
-0.124643
0.4821
1.13461
1.82119
2.53252
3.2633
4.00576
4.75486
5.51029
6.27417
7.04971
7.83788
8.6369
9.44735
10.2753
11.1274
12.0076
12.9145
13.8444
14.7938
15.7588
16.7354
17.7211
18.7148
19.7152
20.7206
21.7298
22.7424
23.7586
24.7777
25.799
26.8227
27.5919
23.1861
22.5403
21.6951
20.871
20.0653
19.2759
18.501
17.7386
16.9855
16.2411
15.5079
14.7874
14.075
13.3682
12.6725
11.9941
11.3399
10.7181
10.1343
9.58425
9.05437
8.53388
8.01668
7.50075
6.98747
6.4753
5.96068
5.44151
4.91534
4.37985
3.83343
3.27581
2.70848
2.13387
1.55442
0.974948
0.403231
-0.15572
-0.69671
-1.21289
-1.70383
-2.1734
-2.62833
-3.07812
-3.52792
-3.97574
-4.41132
-4.8162
-5.18598
-5.54183
-5.89471
-6.23188
-6.54287
-6.82848
-7.09538
-7.3488
-7.58712
-7.80681
-8.00861
-8.19579
-8.37138
-8.54378
-8.72456
-8.92022
-9.12786
-9.33617
-9.53043
-9.68833
-9.78796
-9.82062
-9.78856
-9.70587
-9.60097
-9.49399
-9.37336
-9.19292
-8.91657
-8.56616
-8.17563
-7.75732
-7.32156
-6.87905
-6.43859
-6.00181
-5.55989
-5.10289
-4.62824
-4.14173
-3.65464
-3.17904
-2.71149
-2.22779
-1.70354
-1.1274
-0.500568
0.167859
0.86689
1.58881
2.32645
3.07263
3.82492
4.58452
5.35482
6.13799
6.93317
7.73968
8.56089
9.40419
10.2753
11.1747
12.0989
13.044
14.006
14.9806
15.9649
16.9574
17.9571
18.9621
19.971
20.9834
21.9994
23.0184
24.0399
25.0638
26.0907
26.8625
22.3441
21.6889
20.8302
19.993
19.1759
18.3766
17.593
16.8232
16.0642
15.3143
14.5737
13.8447
13.1273
12.4159
11.712
11.0244
10.3586
9.72153
9.1222
8.56092
8.02575
7.50302
6.98484
6.46824
5.95406
5.44194
4.92847
4.4112
3.88767
3.35527
2.81291
2.25965
1.69589
1.12384
0.545901
-0.0339067
-0.608676
-1.17248
-1.72049
-2.2456
-2.74462
-3.22052
-3.67889
-4.12932
-4.57907
-5.02818
-5.46963
-5.88412
-6.26051
-6.61796
-6.97208
-7.313
-7.6287
-7.91787
-8.18682
-8.44147
-8.68155
-8.90367
-9.10798
-9.29782
-9.47548
-9.64846
-9.8285
-10.0223
-10.228
-10.4363
-10.6326
-10.793
-10.8947
-10.9279
-10.8956
-10.8135
-10.71
-10.6039
-10.4798
-10.2883
-9.99795
-9.63661
-9.23809
-8.81334
-8.37371
-7.93068
-7.49113
-7.05355
-6.60888
-6.14818
-5.66976
-5.18183
-4.69781
-4.2262
-3.75631
-3.26121
-2.71908
-2.12233
-1.4759
-0.792321
-0.0816099
0.649216
1.39175
2.1411
2.89707
3.66215
4.43984
5.23063
6.03312
6.84905
7.68433
8.54584
9.4368
10.3549
11.2954
12.2539
13.2262
14.2087
15.2
16.1988
17.2032
18.212
19.2243
20.2401
21.259
22.2806
23.3047
24.3316
25.3625
26.1378
21.5082
20.8447
19.9736
19.1235
18.2937
17.4835
16.6907
15.9124
15.1465
14.3909
13.6442
12.9076
12.183
11.4663
10.7567
10.0602
9.38251
8.73148
8.11633
7.54145
6.99861
6.47234
5.95301
5.43615
4.92114
4.40867
3.89602
3.38016
2.85884
2.3297
1.7914
1.24227
0.682018
0.112765
-0.462919
-1.04214
-1.6195
-2.18773
-2.74172
-3.27533
-3.78316
-4.26611
-4.72864
-5.18001
-5.62979
-6.0803
-6.52623
-6.94922
-7.33399
-7.69449
-8.0494
-8.39381
-8.71441
-9.0072
-9.27813
-9.53392
-9.77585
-10.0005
-10.2073
-10.3996
-10.5792
-10.7531
-10.9327
-11.1244
-11.3281
-11.5366
-11.7346
-11.8975
-12.0012
-12.035
-12.0024
-11.921
-11.8191
-11.7138
-11.5855
-11.3818
-11.0773
-10.7058
-10.2997
-9.86873
-9.42538
-8.98201
-8.54364
-8.10561
-7.65787
-7.19277
-6.71111
-6.22292
-5.74233
-5.27345
-4.79832
-4.28891
-3.72654
-3.10863
-2.44461
-1.74702
-1.02521
-0.287568
0.458722
1.21137
1.97181
2.74383
3.52956
4.328
5.13923
5.96728
6.8195
7.70146
8.61238
9.54761
10.5024
11.4721
12.4529
13.4428
14.4405
15.4443
16.4529
17.4651
18.4808
19.4996
20.5213
21.5455
22.5725
23.6034
24.6394
25.4192
20.6785
20.0075
19.1249
18.2618
17.4195
16.5975
15.7942
15.0069
14.2333
13.4712
12.7188
11.9754
11.2426
10.5206
9.80564
9.10002
8.41216
7.74859
7.11718
6.52656
5.9733
5.44244
4.92173
4.40454
3.88872
3.37547
2.86319
2.3485
1.82936
1.30341
0.768427
0.222879
-0.333538
-0.899386
-1.47249
-2.05072
-2.62956
-3.20134
-3.76061
-4.30203
-4.81868
-5.30911
-5.7771
-6.23092
-6.68112
-7.13223
-7.58045
-8.011
-8.40579
-8.77036
-9.12573
-9.47376
-9.79961
-10.0963
-10.3697
-10.6267
-10.87
-11.0971
-11.3066
-11.5012
-11.6829
-11.8578
-12.037
-12.2267
-12.4283
-12.6369
-12.8364
-13.0017
-13.1075
-13.1418
-13.1091
-13.0284
-12.9282
-12.8238
-12.6902
-12.4724
-12.1538
-11.7728
-11.3589
-10.9223
-10.4765
-10.0335
-9.59654
-9.15805
-8.70668
-8.23645
-7.75187
-7.26473
-6.78798
-6.32007
-5.83662
-5.31011
-4.72596
-4.08662
-3.4059
-2.69567
-1.96478
-1.2222
-0.472616
0.283867
1.05017
1.83019
2.62405
3.43065
4.2528
5.09649
5.96874
6.87181
7.80108
8.7514
9.71824
10.6972
11.6857
12.6822
13.6853
14.6937
15.706
16.7216
17.7402
18.7619
19.7863
20.8133
21.8441
22.8803
23.9226
24.7074
19.8553
19.1768
18.2831
17.4079
16.5531
15.7188
14.904
14.1071
13.3253
12.5561
11.7976
11.0479
10.3078
9.57894
8.85775
8.14519
7.44791
6.7714
6.12452
5.51719
4.95108
4.41414
3.89089
3.37269
2.85621
2.34206
1.82987
1.3163
0.79902
0.275611
-0.256417
-0.79806
-1.35021
-1.91261
-2.48326
-3.05979
-3.63855
-4.21316
-4.77722
-5.32553
-5.85116
-6.34997
-6.82442
-7.28166
-7.73246
-8.18343
-8.63295
-9.07064
-9.47611
-9.84548
-10.2012
-10.5523
-10.8833
-11.1848
-11.4613
-11.7195
-11.9637
-12.1932
-12.4057
-12.6029
-12.7865
-12.9624
-13.1414
-13.3294
-13.5291
-13.7372
-13.9383
-14.1063
-14.2138
-14.2482
-14.2156
-14.1358
-14.0373
-13.9339
-13.7935
-13.5595
-13.2266
-12.8368
-12.4156
-11.9746
-11.5276
-11.0859
-10.6499
-10.2098
-9.7538
-9.27868
-8.79216
-8.30744
-7.8347
-7.36508
-6.86956
-6.32276
-5.71612
-5.05713
-4.3609
-3.6392
-2.90154
-2.15515
-1.40206
-0.640477
0.133362
0.921708
1.72378
2.5403
3.37658
4.23969
5.13367
6.0561
7.00145
7.96497
8.94182
9.92865
10.924
11.9264
12.9345
13.9467
14.9623
15.9808
17.0023
18.0269
19.054
20.0847
21.1209
22.1636
23.2129
24.0031
19.0402
18.3526
17.4477
16.5614
15.6944
14.8478
14.0211
13.2133
12.4224
11.6456
10.8805
10.1247
9.37756
8.64076
7.91405
7.19546
6.48799
5.79992
5.13917
4.51429
3.93271
3.38714
2.86024
2.34085
1.82405
1.30911
0.796622
0.283881
-0.232025
-0.753287
-1.28216
-1.8199
-2.36811
-2.92715
-3.49495
-4.06909
-4.64717
-5.22409
-5.79231
-6.34648
-6.88066
-7.3885
-7.87017
-8.33145
-8.7829
-9.23377
-9.68495
-10.129
-10.5446
-10.92
-11.2769
-11.6298
-11.9652
-12.2723
-12.5526
-12.812
-13.0569
-13.2885
-13.5042
-13.7043
-13.89
-14.0668
-14.2454
-14.4324
-14.6307
-14.8383
-15.0407
-15.2114
-15.3201
-15.3545
-15.322
-15.2432
-15.1466
-15.0439
-14.8958
-14.6445
-14.2973
-13.8989
-13.4707
-13.0258
-12.5789
-12.1389
-11.7033
-11.2604
-10.7994
-10.3204
-9.83319
-9.35164
-8.88192
-8.40719
-7.89622
-7.32658
-6.69651
-6.01938
-5.30972
-4.57881
-3.83616
-3.08634
-2.32916
-1.56102
-0.778438
0.018575
0.83014
1.65947
2.51341
3.3981
4.31295
5.25281
6.21246
7.18669
8.17168
9.16583
10.1676
11.1752
12.1873
13.2029
14.2213
15.2427
16.2673
17.2946
18.3253
19.3613
20.4041
21.4538
22.5106
23.3072
18.2337
17.5362
16.6193
15.7214
14.8429
13.9843
13.1457
12.3265
11.5253
10.74
9.96783
9.20617
8.45232
7.70812
6.97497
6.24948
5.53388
4.83543
4.1603
3.51831
2.9197
2.3624
1.83054
1.30958
0.792401
0.276703
-0.236533
-0.748923
-1.26369
-1.7828
-2.30858
-2.84316
-3.38789
-3.94314
-4.50759
-5.07926
-5.65629
-6.23427
-6.8058
-7.36526
-7.90714
-8.42403
-8.91373
-9.38023
-9.8332
-10.2842
-10.7367
-11.1848
-11.6093
-11.9935
-12.3533
-12.7072
-13.0464
-13.3589
-13.6431
-13.9042
-14.1498
-14.3831
-14.6017
-14.8048
-14.9931
-15.171
-15.3492
-15.5356
-15.7331
-15.9401
-16.1436
-16.3168
-16.4268
-16.4609
-16.4286
-16.3509
-16.256
-16.1535
-15.9968
-15.7281
-15.3667
-14.9594
-14.524
-14.0756
-13.63
-13.1923
-12.7566
-12.3102
-11.844
-11.3618
-10.875
-10.3971
-9.92871
-9.44535
-8.91523
-8.32112
-7.66856
-6.97464
-6.25329
-5.51562
-4.76904
-4.01539
-3.25261
-2.47637
-1.68485
-0.878711
-0.055594
0.790059
1.665
2.57166
3.50552
4.46074
5.43195
6.41487
7.40769
8.40877
9.4159
10.4276
11.4432
12.4617
13.483
14.5074
15.5349
16.5658
17.6018
18.6443
19.694
20.751
21.8163
22.6198
17.4364
16.7291
15.7989
14.8885
13.9979
13.1273
12.2771
11.4467
10.6346
9.83941
9.05955
8.29201
7.53258
6.78111
6.03966
5.30785
4.58551
3.876
3.1877
2.53031
1.91341
1.34154
0.802552
0.278753
-0.239453
-0.75582
-1.26991
-1.7822
-2.29587
-2.81317
-3.33647
-3.86813
-4.40905
-4.96019
-5.52138
-6.09061
-6.66568
-7.24338
-7.81769
-8.38191
-8.93055
-9.4566
-9.95506
-10.4278
-10.8838
-11.3354
-11.7879
-12.2377
-12.6702
-13.0653
-13.4296
-13.7841
-14.127
-14.4447
-14.7327
-14.9959
-15.2427
-15.4776
-15.6986
-15.9046
-16.0958
-16.2752
-16.4533
-16.6388
-16.8358
-17.0422
-17.2463
-17.4219
-17.5335
-17.5675
-17.5354
-17.4589
-17.3655
-17.2622
-17.0952
-16.8088
-16.4337
-16.0176
-15.576
-15.1256
-14.6816
-14.2462
-13.8098
-13.3588
-12.8873
-12.4024
-11.9173
-11.4434
-10.9739
-10.4779
-9.92469
-9.30518
-8.63225
-7.92376
-7.193
-6.45025
-5.70006
-4.94194
-4.17198
-3.38635
-2.58538
-1.76858
-0.930645
-0.0646866
0.832955
1.75973
2.70987
3.67769
4.65849
5.6499
6.65006
7.65656
8.66778
9.68305
10.7017
11.7231
12.7473
13.7748
14.806
15.8422
16.8847
17.9342
18.9911
20.0565
21.1311
21.9418
16.6503
15.9322
14.9877
14.0636
13.1601
12.2775
11.4156
10.5735
9.75007
8.94427
8.15549
7.38145
6.61711
5.85942
5.11027
4.37129
3.6412
2.92266
2.22313
1.54979
0.91384
0.325003
-0.224005
-0.751792
-1.27131
-1.78805
-2.30288
-2.81541
-3.32826
-3.84422
-4.36539
-4.89399
-5.43124
-5.97864
-6.53651
-7.10281
-7.67541
-8.25239
-8.82879
-9.39691
-9.95132
-10.4861
-10.9938
-11.4739
-11.934
-12.3862
-12.8384
-13.2895
-13.7294
-14.1357
-14.5049
-14.8599
-15.2067
-15.53
-15.8218
-16.0873
-16.3358
-16.5721
-16.7954
-17.0044
-17.1983
-17.3796
-17.5576
-17.7421
-17.9383
-18.144
-18.3482
-18.5259
-18.6399
-18.6742
-18.642
-18.567
-18.4753
-18.3691
-18.189
-17.8852
-17.4975
-17.0732
-16.627
-16.1763
-15.7345
-15.3009
-14.8622
-14.4056
-13.9296
-13.4435
-12.961
-12.4903
-12.0159
-11.5029
-10.924
-10.2796
-9.58826
-8.86743
-8.1298
-7.383
-6.62872
-5.86461
-5.08594
-4.29047
-3.47877
-2.64809
-1.79145
-0.903352
0.0154688
0.95983
1.92396
2.90263
3.89246
4.89148
5.89727
6.90792
7.92274
8.94125
9.9628
10.9871
12.0144
13.0458
14.0824
15.1251
16.1745
17.2313
18.2968
19.3716
20.4561
21.2742
15.8771
15.1467
14.1867
13.2478
12.3307
11.4352
10.5612
9.70735
8.87255
8.05565
7.25683
6.47527
5.70552
4.94276
4.18718
3.44013
2.7023
1.97573
1.26426
0.576126
-0.0774548
-0.685672
-1.24792
-1.78122
-2.30257
-2.81973
-3.3353
-3.84853
-4.36103
-4.87587
-5.39495
-5.92057
-6.45479
-6.99873
-7.55284
-8.11597
-8.68627
-9.26203
-9.83912
-10.4104
-10.97
-11.5123
-12.0293
-12.5179
-12.9831
-13.436
-13.8882
-14.3412
-14.7873
-15.2041
-15.5794
-15.9355
-16.2856
-16.6143
-16.9104
-17.1787
-17.4288
-17.6664
-17.8921
-18.1041
-18.3008
-18.4839
-18.6621
-18.8457
-19.0405
-19.2449
-19.4492
-19.6295
-19.7464
-19.7807
-19.7483
-19.6751
-19.5852
-19.4737
-19.2777
-18.9575
-18.559
-18.1264
-17.6764
-17.2272
-16.7881
-16.355
-15.9133
-15.4512
-14.9714
-14.4853
-14.0063
-13.5372
-13.0537
-12.5186
-11.9124
-11.2449
-10.5377
-9.80719
-9.06436
-8.31376
-7.55453
-6.78252
-5.99393
-5.18815
-4.36392
-3.51589
-2.63736
-1.72701
-0.788974
0.171089
1.14719
2.13521
3.13291
4.13788
5.14808
6.16248
7.18066
8.20214
9.22649
10.2539
11.2855
12.3224
13.3653
14.4147
15.4715
16.5371
17.6122
18.6972
19.7919
20.618
15.1171
14.3744
13.3977
12.4428
11.5104
10.6005
9.71318
8.8475
8.00161
7.17394
6.36469
5.57405
4.79772
4.0298
3.2687
2.51536
1.77031
1.03431
0.311762
-0.389014
-1.06001
-1.68879
-2.26739
-2.80897
-3.33338
-3.8516
-4.36785
-4.8819
-5.39427
-5.90803
-6.42535
-6.94856
-7.47987
-8.02004
-8.57017
-9.13022
-9.69814
-10.2718
-10.8484
-11.4224
-11.9867
-12.5356
-13.0618
-13.5596
-14.0307
-14.4858
-14.9386
-15.3925
-15.8422
-16.2685
-16.6529
-17.0117
-17.3636
-17.6972
-17.9986
-18.2701
-18.5216
-18.7605
-18.9886
-19.2037
-19.4031
-19.5879
-19.7666
-19.9496
-20.1425
-20.3452
-20.55
-20.7332
-20.8473
-20.8365
-20.7028
-20.517
-20.3295
-20.1371
-19.8965
-19.586
-19.2383
-18.8791
-18.522
-18.1769
-17.8166
-17.4084
-16.9629
-16.4957
-16.0127
-15.5274
-15.0524
-14.5827
-14.0854
-13.5238
-12.8898
-12.2019
-11.4816
-10.744
-9.99695
-9.24202
-8.47626
-7.69472
-6.89556
-6.07798
-5.2379
-4.36881
-3.46698
-2.53547
-1.58048
-0.607748
0.37808
1.37422
2.37835
3.38813
4.40226
5.42018
6.44149
7.46585
8.49335
9.52502
10.5622
11.6054
12.6549
13.7118
14.7775
15.8529
16.9383
18.0338
19.1397
19.9746
14.3692
13.6151
12.6223
11.65
10.7004
9.77454
8.87257
7.994
7.13685
6.2989
5.47901
4.67789
3.89397
3.12095
2.35477
1.59608
0.844537
0.0998495
-0.633048
-1.34733
-2.0348
-2.68313
-3.28149
-3.83493
-4.36375
-4.88347
-5.40015
-5.91488
-6.42743
-6.9404
-7.45641
-7.9775
-8.50583
-9.04257
-9.58917
-10.1459
-10.7109
-11.2821
-11.8579
-12.4336
-13.0016
-13.5562
-14.0913
-14.5984
-15.0768
-15.5359
-15.9894
-16.4431
-16.8943
-17.3288
-17.7245
-18.0881
-18.4412
-18.779
-19.0862
-19.3614
-19.6144
-19.8543
-20.0843
-20.3025
-20.5049
-20.6916
-20.8711
-21.0537
-21.2448
-21.4456
-21.6203
-21.6902
-21.6173
-21.3838
-21.0054
-20.588
-20.2004
-19.8508
-19.5396
-19.266
-19.0306
-18.8263
-18.6551
-18.5122
-18.3354
-18.0706
-17.7592
-17.4263
-17.0298
-16.5707
-16.0989
-15.6247
-15.1081
-14.5172
-13.857
-13.1517
-12.4214
-11.6785
-10.9275
-10.167
-9.3924
-8.59981
-7.78865
-6.95613
-6.09613
-5.20389
-4.28028
-3.33087
-2.36216
-1.37901
-0.38447
0.618747
1.62808
2.64198
3.65971
4.6809
5.70524
6.73281
7.76457
8.80189
9.8454
10.8952
11.9522
13.0181
14.0938
15.1796
16.2759
17.3829
18.5007
19.3444
13.6331
12.8683
11.8601
10.8708
9.90308
8.9595
8.04116
7.14789
6.27855
5.43017
4.59974
3.78755
2.99447
2.21603
1.44537
0.680938
-0.0763295
-0.827677
-1.57095
-2.29838
-3.00075
-3.66858
-4.2886
-4.85725
-5.39283
-5.91471
-6.43186
-6.9473
-7.46052
-7.97314
-8.48805
-9.00709
-9.53257
-10.0664
-10.6096
-11.1626
-11.7246
-12.2936
-12.868
-13.4441
-14.015
-14.5747
-15.1175
-15.6342
-16.1213
-16.5852
-17.0392
-17.4929
-17.9457
-18.3873
-18.7947
-19.164
-19.518
-19.8596
-20.1728
-20.4526
-20.7074
-20.948
-21.1794
-21.4001
-21.6058
-21.7951
-21.9755
-22.1578
-22.3304
-22.4275
-22.3542
-22.0563
-21.5837
-21.0331
-20.462
-19.9175
-19.4233
-18.988
-18.6348
-18.3753
-18.1921
-18.0583
-17.9677
-17.916
-17.8741
-17.8225
-17.7876
-17.7544
-17.6327
-17.4051
-17.0931
-16.6616
-16.1195
-15.4986
-14.8152
-14.0957
-13.3581
-12.6109
-11.8553
-11.0877
-10.3025
-9.49799
-8.67292
-7.82178
-6.93897
-6.02391
-5.08095
-4.11646
-3.13604
-2.14319
-1.14087
-0.131982
0.881668
1.8992
2.92026
3.94461
4.97227
6.00408
7.04144
8.08515
9.13534
10.1926
11.2587
12.3347
13.421
14.5181
15.6264
16.7456
17.8754
18.7281
12.9082
12.134
11.1113
10.1056
9.11996
8.15756
7.22075
6.31054
5.427
4.56701
3.72641
2.90382
2.10044
1.3148
0.5399
-0.229345
-0.992108
-1.74885
-2.50042
-3.24022
-3.95856
-4.64548
-5.28708
-5.87477
-6.42036
-6.94551
-7.46375
-7.97988
-8.49387
-9.00634
-9.52021
-10.0375
-10.5607
-11.0917
-11.6312
-12.1803
-12.7393
-13.3059
-13.8782
-14.4537
-15.0272
-15.5914
-16.1407
-16.667
-17.1637
-17.6332
-18.0881
-18.542
-18.9968
-19.4442
-19.8622
-20.2386
-20.5939
-20.9391
-21.2582
-21.543
-21.8004
-22.0419
-22.2743
-22.497
-22.7058
-22.8981
-23.0677
-23.1745
-23.1471
-22.8846
-22.3508
-21.6555
-20.9191
-20.2145
-19.5801
-19.0167
-18.5121
-18.0643
-17.6957
-17.421
-17.221
-17.0679
-16.9568
-16.8926
-16.8803
-16.9263
-17.0367
-17.1956
-17.3648
-17.5342
-17.6148
-17.4636
-17.0647
-16.4685
-15.7657
-15.0355
-14.2925
-13.541
-12.7793
-12.002
-11.2051
-10.3876
-9.54551
-8.6725
-7.76615
-6.82995
-5.87014
-4.89265
-3.90169
-2.90049
-1.89208
-0.878657
0.138677
1.15954
2.18387
3.21168
4.2436
5.28095
6.32479
7.37536
8.43308
9.49943
10.5757
11.6624
12.7603
13.87
14.991
16.1225
17.2646
18.1266
12.1909
11.4102
10.3759
9.35508
8.352
7.37041
6.41367
5.48435
4.58349
3.70948
2.85852
2.02662
1.21282
0.417822
-0.362459
-1.13533
-1.90333
-2.66566
-3.4234
-4.17412
-4.90777
-5.61249
-6.27628
-6.88643
-7.44548
-7.97571
-8.49564
-9.01224
-9.52688
-10.0395
-10.5525
-11.0686
-11.5896
-12.1177
-12.654
-13.1998
-13.7554
-14.3191
-14.8891
-15.4637
-16.0387
-16.6063
-17.1611
-17.6964
-18.203
-18.6796
-19.1372
-19.5912
-20.0466
-20.4975
-20.925
-21.311
-21.6699
-22.0179
-22.3425
-22.6325
-22.8929
-23.1356
-23.369
-23.5937
-23.7794
-23.863
-23.8206
-23.6275
-23.2161
-22.5648
-21.7502
-20.9088
-20.1152
-19.381
-18.7183
-18.1322
-17.6104
-17.142
-16.7492
-16.4485
-16.2211
-16.0471
-15.9231
-15.8552
-15.8464
-15.899
-16.0209
-16.218
-16.5026
-16.8802
-17.2788
-17.5734
-17.628
-17.3174
-16.7015
-15.9722
-15.2247
-14.4682
-13.6983
-12.9091
-12.0985
-11.2647
-10.4015
-9.5047
-8.57609
-7.62175
-6.64798
-5.6594
-4.65968
-3.65213
-2.63908
-1.62191
-0.601213
0.422991
1.4509
2.48307
3.5205
4.56441
5.61535
6.67349
7.74015
8.81678
9.904
11.0027
12.1137
13.2366
14.3702
15.5146
16.6694
17.5398
11.4779
10.6932
9.65113
8.61819
7.59925
6.59924
5.62228
4.67208
3.75113
2.85999
1.9964
1.15472
0.330995
-0.473894
-1.26112
-2.03791
-2.8103
-3.57805
-4.34095
-5.09951
-5.84653
-6.5695
-7.25552
-7.8892
-8.46593
-9.00445
-9.52687
-10.044
-10.5593
-11.0725
-11.5853
-12.1003
-12.6193
-13.1446
-13.6781
-14.2206
-14.7726
-15.3333
-15.9012
-16.4743
-17.0493
-17.6197
-18.1795
-18.7226
-19.2392
-19.7245
-20.1866
-20.6405
-21.0952
-21.548
-21.9837
-22.3818
-22.7464
-23.0963
-23.426
-23.7214
-23.9851
-24.2291
-24.4459
-24.5698
-24.5134
-24.2274
-23.7509
-23.177
-22.5276
-21.7792
-20.9543
-20.1174
-19.3098
-18.5494
-17.8573
-17.243
-16.6916
-16.1889
-15.7615
-15.4306
-15.1832
-15.001
-14.8758
-14.8109
-14.8075
-14.868
-15.001
-15.2133
-15.52
-15.9294
-16.4269
-16.9694
-17.461
-17.6908
-17.4686
-16.8832
-16.1544
-15.3912
-14.6108
-13.8086
-12.9824
-12.1279
-11.2404
-10.32
-9.37182
-8.40229
-7.41646
-6.41841
-5.41188
-4.39949
-3.38265
-2.36205
-1.33791
-0.310042
0.72226
1.75994
2.80406
3.85534
4.91391
5.98085
7.05779
8.14557
9.24528
10.3578
11.4826
12.6185
13.7654
14.9231
16.0895
16.9677
10.7669
9.97992
8.93323
7.89211
6.86042
5.84367
4.84715
3.87567
2.9331
2.02181
1.14156
0.28753
-0.545682
-1.35955
-2.15488
-2.93691
-3.71266
-4.48483
-5.25289
-6.01697
-6.77497
-7.51606
-8.2238
-8.88184
-9.48066
-10.0313
-10.5576
-11.0759
-11.5919
-12.1059
-12.6184
-13.1324
-13.6497
-14.1727
-14.7035
-15.2425
-15.7908
-16.3487
-16.914
-17.4848
-18.0592
-18.632
-19.1962
-19.7457
-20.2722
-20.7674
-21.2351
-21.6893
-22.1433
-22.5981
-23.0413
-23.4514
-23.8225
-24.1742
-24.5084
-24.8022
-25.0104
-25.114
-25.1343
-24.9574
-24.4675
-23.7716
-23.0097
-22.264
-21.5714
-20.8762
-20.1058
-19.2809
-18.4645
-17.684
-16.9613
-16.3146
-15.731
-15.1962
-14.7372
-14.3826
-14.1262
-13.944
-13.8232
-13.7648
-13.7674
-13.8357
-13.9762
-14.1989
-14.5265
-14.9651
-15.4954
-16.0938
-16.7479
-17.3763
-17.7367
-17.6088
-17.0539
-16.3083
-15.5148
-14.6978
-13.8534
-12.9754
-12.0632
-11.1216
-10.1566
-9.17355
-8.17716
-7.17159
-6.15983
-5.1434
-4.12296
-3.09884
-2.07104
-1.03875
-0.0008935
1.04354
2.0953
3.15436
4.22158
5.29883
6.38721
7.48796
8.60195
9.72874
10.8675
12.0173
13.1778
14.3476
15.5244
16.4105
10.054
9.26765
8.21932
7.1734
6.13305
5.10267
4.08828
3.09576
2.13039
1.19638
0.295677
-0.573938
-1.41784
-2.24038
-3.04407
-3.83255
-4.61149
-5.38649
-6.15865
-6.92698
-7.6933
-8.45061
-9.18013
-9.8638
-10.4879
-11.0548
-11.5876
-12.1078
-12.6243
-13.1389
-13.6515
-14.1647
-14.6808
-15.2017
-15.7296
-16.2655
-16.8106
-17.3652
-17.9276
-18.4962
-19.0697
-19.6437
-20.211
-20.7661
-21.3018
-21.8074
-22.2819
-22.7377
-23.1912
-23.6472
-24.0909
-24.4769
-24.7802
-25.0401
-25.2739
-25.4497
-25.4692
-25.2678
-24.945
-24.4808
-23.7693
-22.9274
-22.101
-21.3241
-20.6083
-19.9334
-19.2187
-18.4198
-17.5949
-16.7959
-16.0425
-15.3609
-14.7509
-14.1952
-13.7105
-13.3336
-13.0678
-12.8846
-12.7691
-12.7197
-12.73
-12.8054
-12.9514
-13.1843
-13.5342
-14.0047
-14.5723
-15.2108
-15.9059
-16.6587
-17.4002
-17.8672
-17.781
-17.1987
-16.4093
-15.5739
-14.7072
-13.8051
-12.8709
-11.9108
-10.9307
-9.93596
-8.93133
-7.92014
-6.90406
-5.88384
-4.85979
-3.83203
-2.79983
-1.76191
-0.717212
0.334998
1.3947
2.46239
3.53998
4.62902
5.7309
6.84658
7.97545
9.117
10.2703
11.434
12.6068
13.7873
14.9744
15.8681
9.33615
8.55308
7.50665
6.45903
5.41367
4.3741
3.34533
2.33364
1.34535
0.386464
-0.538026
-1.42691
-2.28466
-3.11745
-3.92968
-4.72499
-5.50774
-6.2843
-7.05859
-7.83066
-8.60247
-9.37152
-10.1223
-10.8332
-11.4851
-12.0729
-12.6159
-13.139
-13.6561
-14.1713
-14.6845
-15.1974
-15.7124
-16.2314
-16.7566
-17.2898
-17.8316
-18.3826
-18.9422
-19.5088
-20.0806
-20.6546
-21.2246
-21.7845
-22.3279
-22.8441
-23.3148
-23.7174
-24.0604
-24.3859
-24.7033
-24.9494
-25.0848
-25.16
-25.1891
-25.1484
-24.9698
-24.5857
-24.0971
-23.5616
-22.8821
-22.0594
-21.2094
-20.4017
-19.6524
-18.9674
-18.2971
-17.5519
-16.7329
-15.9145
-15.1344
-14.4169
-13.7788
-13.2049
-12.6962
-12.2929
-12.0125
-11.8266
-11.7166
-11.677
-11.6961
-11.7785
-11.9325
-12.1813
-12.5584
-13.0649
-13.6712
-14.3451
-15.0752
-15.8673
-16.7267
-17.5699
-18.0886
-17.9614
-17.292
-16.4346
-15.5426
-14.6175
-13.6642
-12.6879
-11.6948
-10.6911
-9.68047
-8.66471
-7.64466
-6.62075
-5.59302
-4.56087
-3.52295
-2.47804
-1.4255
-0.365277
0.703056
1.78128
2.87116
3.97431
5.09189
6.22324
7.36751
8.52429
9.69152
10.8675
12.0515
13.2425
14.4401
15.3409
8.61268
7.83375
6.7919
5.74612
4.69896
3.654
2.61543
1.58871
0.580188
-0.403267
-1.35415
-2.26712
-3.14337
-3.98942
-4.81158
-5.61404
-6.4016
-7.18041
-7.95584
-8.73031
-9.50481
-10.2803
-11.0487
-11.7876
-12.4704
-13.0843
-13.6416
-14.1696
-14.6881
-15.2039
-15.7178
-16.2305
-16.7445
-17.2619
-17.7848
-18.3153
-18.8537
-19.4013
-19.9581
-20.5221
-21.0917
-21.6397
-22.1371
-22.6055
-23.0706
-23.5153
-23.8835
-24.1162
-24.2238
-24.2892
-24.3647
-24.4233
-24.4387
-24.4235
-24.3538
-24.2149
-23.9808
-23.5894
-23.1014
-22.5939
-21.9837
-21.1973
-20.334
-19.4979
-18.714
-17.9984
-17.3419
-16.6579
-15.8734
-15.0454
-14.2441
-13.4941
-12.8213
-12.2244
-11.6942
-11.2636
-10.9631
-10.7714
-10.6659
-10.6364
-10.6654
-10.7558
-10.9231
-11.1955
-11.6049
-12.1485
-12.7889
-13.4898
-14.2501
-15.0816
-15.9841
-16.9487
-17.8712
-18.3513
-18.0669
-17.2779
-16.3608
-15.4147
-14.4438
-13.4535
-12.4509
-11.4409
-10.4254
-9.40557
-8.38179
-7.35413
-6.32189
-5.28387
-4.23882
-3.186
-2.12532
-1.05638
0.0226207
1.11367
2.21838
3.33801
4.47222
5.61952
6.77916
7.95006
9.1299
10.3176
11.5127
12.7141
13.9207
14.8278
7.88663
7.10987
6.07247
5.0312
3.9858
2.93885
1.89434
0.856947
-0.167569
-1.17252
-2.14997
-3.09105
-3.99126
-4.85454
-5.68875
-6.49984
-7.29297
-8.07455
-8.85062
-9.62609
-10.4029
-11.1813
-11.9603
-12.7238
-13.4407
-14.0862
-14.6632
-15.1992
-15.7199
-16.2363
-16.7508
-17.2635
-17.7768
-18.2846
-18.7679
-19.2249
-19.6816
-20.1548
-20.6436
-21.1498
-21.6588
-22.0978
-22.4233
-22.7036
-23.0057
-23.2958
-23.4847
-23.5434
-23.512
-23.4497
-23.4062
-23.3872
-23.3791
-23.3677
-23.3047
-23.1711
-22.9552
-22.5921
-22.1138
-21.617
-21.0594
-20.3295
-19.4734
-18.6127
-17.7954
-17.0419
-16.3658
-15.7219
-15.0021
-14.1877
-13.3668
-12.591
-11.8813
-11.2531
-10.7021
-10.2472
-9.9222
-9.72051
-9.61813
-9.59818
-9.63712
-9.73755
-9.9243
-10.2268
-10.6714
-11.2483
-11.9158
-12.6449
-13.4419
-14.3173
-15.2646
-16.2721
-17.3292
-18.2354
-18.5247
-18.0443
-17.164
-16.1982
-15.2116
-14.2106
-13.2012
-12.1862
-11.1666
-10.143
-9.11532
-8.08298
-7.04476
-5.9995
-4.94644
-3.88535
-2.81578
-1.7359
-0.643574
0.463017
1.58496
2.72195
3.87271
5.03552
6.20975
7.39373
8.58563
9.78495
10.9902
12.2003
13.4142
14.3267
7.16154
6.38414
5.34839
4.31156
3.27068
2.22545
1.17868
0.134627
-0.901649
-1.92399
-2.92512
-3.89507
-4.82416
-5.71025
-6.55995
-7.38171
-8.18157
-8.9664
-9.74327
-10.5187
-11.2964
-12.076
-12.8587
-13.6385
-14.3891
-15.074
-15.6788
-16.2269
-16.7509
-17.2474
-17.6831
-18.0663
-18.4482
-18.8374
-19.1886
-19.4879
-19.7855
-20.1142
-20.4726
-20.87
-21.2604
-21.5544
-21.7573
-21.9458
-22.1707
-22.3868
-22.4922
-22.494
-22.4529
-22.3952
-22.3522
-22.333
-22.3249
-22.3172
-22.261
-22.1289
-21.9282
-21.5989
-21.1348
-20.6331
-20.1139
-19.4595
-18.6279
-17.7447
-16.8975
-16.1055
-15.3905
-14.7532
-14.0994
-13.3286
-12.4997
-11.7023
-10.9603
-10.2942
-9.71806
-9.24118
-8.88939
-8.67422
-8.57503
-8.56366
-8.61179
-8.72464
-8.93477
-9.27097
-9.7518
-10.3581
-11.0532
-11.8216
-12.6682
-13.5942
-14.5888
-15.6398
-16.7368
-17.8233
-18.5921
-18.613
-17.9292
-16.969
-15.9701
-14.9617
-13.9471
-12.9277
-11.9042
-10.8766
-9.84411
-8.80568
-7.76019
-6.70686
-5.64538
-4.57517
-3.49433
-2.40061
-1.29221
-0.167773
0.972196
2.12648
3.29321
4.47095
5.65943
6.85618
8.05959
9.2689
10.4826
11.6998
12.9203
13.8377
6.44043
5.65985
4.62221
3.58709
2.55078
1.51016
0.465055
-0.581499
-1.62508
-2.66023
-3.68032
-4.67621
-5.63635
-6.55202
-7.4231
-8.25801
-9.06679
-9.85684
-10.6353
-11.4099
-12.186
-12.9654
-13.7484
-14.5341
-15.3099
-16.0383
-16.6681
-17.154
-17.5173
-17.8099
-18.0027
-18.107
-18.2268
-18.4058
-18.6075
-18.8069
-19.0264
-19.2845
-19.5834
-19.934
-20.2635
-20.4885
-20.6652
-20.8596
-21.0934
-21.3172
-21.4246
-21.4289
-21.395
-21.3446
-21.3042
-21.2848
-21.2769
-21.2722
-21.2226
-21.0931
-20.9086
-20.6131
-20.164
-19.6546
-19.1589
-18.5754
-17.7867
-16.8935
-16.02
-15.1917
-14.4332
-13.7672
-13.1498
-12.4532
-11.6436
-10.8247
-10.057
-9.35296
-8.74272
-8.24123
-7.86295
-7.63218
-7.53684
-7.53585
-7.59584
-7.72307
-7.95582
-8.32678
-8.84448
-9.48244
-10.215
-11.0352
-11.9404
-12.9226
-13.9668
-15.0613
-16.1964
-17.3533
-18.3852
-18.8921
-18.5892
-17.7293
-16.7219
-15.7079
-14.6889
-13.6655
-12.6378
-11.6052
-10.5667
-9.52097
-8.46732
-7.4054
-6.33456
-5.25276
-4.15756
-3.04726
-1.92024
-0.77709
0.380563
1.55212
2.73485
3.92723
5.12881
6.33686
7.55004
8.76752
9.98847
11.2127
12.4396
13.3611
5.72881
4.94102
3.89729
2.86037
1.82596
0.790102
-0.250366
-1.29534
-2.34167
-3.38474
-4.41865
-5.43538
-6.42448
-7.37369
-8.27348
-9.12685
-9.94726
-10.7451
-11.5267
-12.3001
-13.0735
-13.8512
-14.6335
-15.4195
-16.1983
-16.8759
-17.3261
-17.5078
-17.4945
-17.4367
-17.3801
-17.3149
-17.3034
-17.382
-17.5275
-17.7129
-17.9347
-18.1951
-18.5023
-18.8609
-19.1841
-19.3979
-19.5745
-19.776
-20.0196
-20.2522
-20.3617
-20.3675
-20.3401
-20.2994
-20.2634
-20.2439
-20.2359
-20.2334
-20.1897
-20.0644
-19.8961
-19.634
-19.2016
-18.6869
-18.1916
-17.6568
-16.9388
-16.0606
-15.1617
-14.3011
-13.4993
-12.7856
-12.1689
-11.5435
-10.7851
-9.95816
-9.16761
-8.4312
-7.77954
-7.2472
-6.84369
-6.59462
-6.50304
-6.51847
-6.59685
-6.7415
-6.9973
-7.40317
-7.95824
-8.63642
-9.41994
-10.3002
-11.2675
-12.3069
-13.4
-14.5344
-15.7021
-16.8951
-18.0362
-18.887
-19.0571
-18.4464
-17.4688
-16.45
-15.4268
-14.3993
-13.3665
-12.3277
-11.2819
-10.2279
-9.16538
-8.09384
-7.01112
-5.91417
-4.80158
-3.67213
-2.5252
-1.36345
-0.188057
1.00065
2.19883
3.40437
4.61659
5.83361
7.05492
8.27993
9.50812
10.7388
11.9714
12.8967
5.03315
4.23348
3.17792
2.13478
1.09866
0.0649783
-0.970548
-2.0109
-3.05573
-4.10177
-5.14418
-6.17617
-7.18888
-8.17016
-9.10501
-9.98569
-10.8219
-11.63
-12.417
-13.1898
-13.9604
-14.7351
-15.5152
-16.2541
-16.857
-17.1916
-17.1905
-16.9702
-16.6878
-16.4562
-16.31
-16.2234
-16.2109
-16.2894
-16.434
-16.6205
-16.8454
-17.1085
-17.424
-17.7846
-18.0958
-18.304
-18.4861
-18.6953
-18.9489
-19.1897
-19.303
-19.3115
-19.2913
-19.2617
-19.2308
-19.2111
-19.2033
-19.2021
-19.1641
-19.0443
-18.8885
-18.6555
-18.2452
-17.731
-17.2248
-16.7217
-16.0859
-15.2431
-14.3232
-13.4333
-12.5916
-11.8272
-11.174
-10.5822
-9.90313
-9.10145
-8.28967
-7.52688
-6.83449
-6.26433
-5.83458
-5.56591
-5.47701
-5.51199
-5.61193
-5.77933
-6.06519
-6.51127
-7.11085
-7.84167
-8.68539
-9.62704
-10.6532
-11.7439
-12.8782
-14.0449
-15.2396
-16.4586
-17.6577
-18.7131
-19.2949
-19.0634
-18.2113
-17.1883
-16.1607
-15.1279
-14.0888
-13.0426
-11.9882
-10.9253
-9.85296
-8.76921
-7.67058
-6.55518
-5.42265
-4.27232
-3.10529
-1.92462
-0.731644
0.472339
1.68328
2.89939
4.12037
5.34541
6.57459
7.80691
9.04167
10.2778
11.515
12.4441
4.35885
3.54375
2.47044
1.41491
0.372293
-0.66301
-1.69602
-2.73122
-3.77143
-4.81607
-5.86169
-6.90297
-7.93265
-8.94072
-9.91212
-10.8292
-11.6892
-12.5099
-13.3043
-14.0791
-14.8473
-15.6185
-16.3215
-16.7798
-16.8938
-16.7225
-16.3754
-15.9746
-15.6255
-15.3786
-15.2246
-15.1351
-15.1207
-15.1975
-15.3409
-15.5292
-15.7572
-16.024
-16.3492
-16.7089
-17.0051
-17.2098
-17.4001
-17.6181
-17.8804
-18.128
-18.248
-18.2621
-18.2502
-18.2329
-18.2078
-18.1881
-18.1803
-18.18
-18.1473
-18.0342
-17.8836
-17.6702
-17.289
-16.7863
-16.2721
-15.782
-15.2127
-14.4294
-13.508
-12.5884
-11.7108
-10.8967
-10.1861
-9.58913
-8.98513
-8.24084
-7.42223
-6.63589
-5.91097
-5.30179
-4.84387
-4.55637
-4.465
-4.51288
-4.63248
-4.82863
-5.15516
-5.65424
-6.31076
-7.10189
-8.01023
-9.01446
-10.0941
-11.2253
-12.3918
-13.5876
-14.8099
-16.0546
-17.3063
-18.4764
-19.3498
-19.5414
-18.9211
-17.9222
-16.8893
-15.85
-14.8033
-13.7484
-12.6848
-11.6118
-10.5271
-9.42675
-8.30826
-7.17208
-6.01817
-4.84629
-3.65872
-2.45946
-1.25134
-0.0355925
1.18525
2.41033
3.63985
4.87306
6.10961
7.34814
8.58799
9.82866
11.0701
12.0021
3.70818
2.87666
1.7818
0.707798
-0.347764
-1.39003
-2.42454
-3.45677
-4.49171
-5.53184
-6.57629
-7.62131
-8.66114
-9.68826
-10.6908
-11.6486
-12.544
-13.3833
-14.1865
-14.9667
-15.7345
-16.411
-16.7626
-16.666
-16.2787
-15.8184
-15.3731
-14.9444
-14.5709
-14.3065
-14.1436
-14.0506
-14.0331
-14.1061
-14.248
-14.4372
-14.6669
-14.94
-15.278
-15.6373
-15.9171
-16.1179
-16.3169
-16.5453
-16.8162
-17.0691
-17.1981
-17.2204
-17.2179
-17.2147
-17.196
-17.1765
-17.1688
-17.1689
-17.1412
-17.0357
-16.8862
-16.6847
-16.334
-15.8508
-15.3346
-14.8369
-14.3101
-13.611
-12.7166
-11.769
-10.8568
-9.99721
-9.22616
-8.58826
-8.02064
-7.35497
-6.56221
-5.75686
-5.00643
-4.36383
-3.87628
-3.56934
-3.47057
-3.52505
-3.66465
-3.89764
-4.27573
-4.83425
-5.54981
-6.40557
-7.38707
-8.45672
-9.58256
-10.747
-11.9453
-13.1735
-14.4259
-15.6972
-16.9829
-18.2255
-19.2955
-19.8485
-19.5484
-18.6506
-17.6111
-16.5641
-15.5085
-14.4442
-13.3704
-12.2848
-11.1828
-10.0612
-8.92037
-7.76134
-6.5842
-5.39088
-4.18488
-2.97062
-1.75088
-0.525584
0.704309
1.93828
3.17624
4.41661
5.6588
6.90203
8.14588
9.39071
10.6361
11.5704
3.08276
2.23469
1.11696
0.0205705
-1.05402
-2.10988
-3.15167
-4.1852
-5.21702
-6.25197
-7.2921
-8.33643
-9.38072
-10.4189
-11.4429
-12.4372
-13.3771
-14.2478
-15.0645
-15.8512
-16.5234
-16.812
-16.5671
-16.0005
-15.3954
-14.8644
-14.3872
-13.9271
-13.526
-13.2415
-13.0679
-12.9703
-12.9478
-13.0155
-13.1563
-13.3452
-13.5745
-13.8563
-14.2099
-14.5697
-14.8325
-15.0286
-15.2373
-15.4778
-15.758
-16.015
-16.1533
-16.1867
-16.1946
-16.2053
-16.1959
-16.1783
-16.1708
-16.1712
-16.1485
-16.0513
-15.903
-15.7105
-15.3866
-14.9243
-14.4132
-13.9035
-13.392
-12.7704
-11.9351
-10.9793
-10.032
-9.13039
-8.30061
-7.59638
-7.01997
-6.42657
-5.69333
-4.88775
-4.11519
-3.44095
-2.92029
-2.59654
-2.49675
-2.56045
-2.72431
-3.00422
-3.44056
-4.0543
-4.83179
-5.76564
-6.82363
-7.94813
-9.1125
-10.3128
-11.5472
-12.8082
-14.0889
-15.3841
-16.6906
-17.9874
-19.1806
-20.0155
-20.0886
-19.3647
-18.3247
-17.2685
-16.2033
-15.1285
-14.0416
-12.9382
-11.8139
-10.6683
-9.50283
-8.31848
-7.11796
-5.90646
-4.68723
-3.46198
-2.23215
-0.997475
0.241522
1.48364
2.72831
3.9741
5.22076
6.46792
7.7151
8.96304
10.2117
11.1483
2.48667
1.62097
0.479195
-0.641939
-1.73993
-2.81525
-3.87113
-4.9123
-5.94534
-6.97705
-8.01199
-9.05222
-10.0964
-11.1398
-12.1761
-13.1959
-14.1787
-15.0949
-15.9372
-16.6353
-16.9166
-16.5971
-15.9019
-15.1601
-14.5005
-13.934
-13.4208
-12.9255
-12.4931
-12.1849
-11.9987
-11.8949
-11.8649
-11.926
-12.0668
-12.2551
-12.4835
-12.7749
-13.1427
-13.501
-13.7489
-13.9425
-14.1619
-14.4168
-14.7077
-14.9664
-15.113
-15.1617
-15.1792
-15.2004
-15.205
-15.1952
-15.189
-15.1898
-15.1723
-15.084
-14.9378
-14.7528
-14.4509
-14.0068
-13.5056
-12.9908
-12.4687
-11.8921
-11.1433
-10.2181
-9.24216
-8.29898
-7.41425
-6.6354
-6.01048
-5.45424
-4.79689
-4.02115
-3.23333
-2.52374
-1.96731
-1.63363
-1.54244
-1.61983
-1.81028
-2.14201
-2.64304
-3.32036
-4.17969
-5.20022
-6.31723
-7.4821
-8.6872
-9.92964
-11.2009
-12.4924
-13.7983
-15.1149
-16.4398
-17.7689
-19.0444
-20.1017
-20.5171
-20.0224
-19.0282
-17.9622
-16.8863
-15.7975
-14.6918
-13.565
-12.4148
-11.2421
-10.0497
-8.84199
-7.6239
-6.39924
-5.16937
-3.9342
-2.69447
-1.45059
-0.203602
1.04468
2.29404
3.54413
4.79458
6.04481
7.29464
8.5449
9.79537
10.7332
1.91688
1.03635
-0.128255
-1.27556
-2.40041
-3.50014
-4.57612
-5.63194
-6.67266
-7.70531
-8.73681
-9.77179
-10.812
-11.8558
-12.8984
-13.9329
-14.9468
-15.9121
-16.7119
-17.051
-16.7295
-15.9707
-15.125
-14.3374
-13.638
-13.0319
-12.4785
-11.9436
-11.4753
-11.1389
-10.9361
-10.8237
-10.7845
-10.8383
-10.9796
-11.1677
-11.3957
-11.698
-12.0752
-12.4267
-12.6639
-12.8599
-13.0917
-13.3635
-13.6665
-13.9243
-14.0769
-14.1446
-14.1734
-14.2007
-14.2201
-14.2247
-14.2251
-14.2281
-14.2157
-14.1366
-13.9928
-13.8138
-13.5301
-13.0994
-12.6062
-12.093
-11.5544
-10.99
-10.3193
-9.46228
-8.48784
-7.50819
-6.5716
-5.71865
-5.01779
-4.45354
-3.86059
-3.13982
-2.35692
-1.61851
-1.02921
-0.683597
-0.599791
-0.697435
-0.920143
-1.30474
-1.88
-2.6449
-3.60455
-4.70421
-5.86841
-7.07893
-8.33258
-9.61718
-10.9219
-12.2396
-13.5664
-14.9
-16.2388
-17.5815
-18.9102
-20.1108
-20.8006
-20.6015
-19.7209
-18.6437
-17.5532
-16.4445
-15.3137
-14.1578
-12.9773
-11.7763
-10.5611
-9.33715
-8.10704
-6.87159
-5.63129
-4.38617
-3.13727
-1.88576
-0.63302
0.619468
1.87221
3.12542
4.37844
5.63074
6.88245
8.13425
9.38603
10.3247
1.36353
0.47381
-0.707056
-1.87705
-3.02951
-4.1578
-5.25974
-6.33685
-7.39262
-8.43283
-9.46506
-10.4964
-11.5313
-12.5714
-13.6149
-14.6569
-15.6892
-16.6384
-17.1731
-16.9544
-16.178
-15.2672
-14.3842
-13.5564
-12.8142
-12.1646
-11.5661
-10.9867
-10.4773
-10.1066
-9.88061
-9.75554
-9.70679
-9.75349
-9.89356
-10.0804
-10.31
-10.626
-11.0113
-11.3517
-11.5798
-11.7818
-12.0281
-12.3189
-12.6341
-12.8897
-13.0441
-13.1309
-13.1766
-13.21
-13.2396
-13.2611
-13.2761
-13.2864
-13.2794
-13.2079
-13.0648
-12.8922
-12.6288
-12.2084
-11.7162
-11.2054
-10.6579
-10.0822
-9.4512
-8.6798
-7.75127
-6.75709
-5.77829
-4.85765
-4.06464
-3.44278
-2.88076
-2.22681
-1.47533
-0.72825
-0.111469
0.255007
0.334431
0.207159
-0.0625445
-0.508729
-1.17068
-2.04904
-3.11294
-4.2837
-5.50682
-6.77431
-8.07357
-9.39074
-10.7182
-12.052
-13.3907
-14.7336
-16.0797
-17.4281
-18.7773
-20.0631
-21.0133
-21.1478
-20.401
-19.3084
-18.1965
-17.0605
-15.8972
-14.7074
-13.4976
-12.2753
-11.0451
-9.80916
-8.56811
-7.32203
-6.07194
-4.81828
-3.56234
-2.30591
-1.04989
0.205419
1.46056
2.71558
3.96998
5.22372
6.47687
7.72997
8.98384
9.92478
0.822242
-0.0745272
-1.26578
-2.45024
-3.62424
-4.78062
-5.9133
-7.01894
-8.09746
-9.15305
-10.1928
-11.2248
-12.2559
-13.2906
-14.3304
-15.3738
-16.4136
-17.1938
-17.2296
-16.5203
-15.5521
-14.6019
-13.6891
-12.8237
-12.0373
-11.3402
-10.6916
-10.062
-9.50516
-9.09272
-8.83458
-8.69073
-8.6327
-8.6724
-8.80559
-8.9887
-9.22454
-9.55807
-9.95221
-10.2809
-10.4999
-10.7097
-10.9737
-11.2849
-11.611
-11.8645
-12.018
-12.1199
-12.1875
-12.2313
-12.2673
-12.3024
-12.335
-12.3566
-12.3559
-12.2901
-12.1459
-11.9772
-11.7356
-11.3324
-10.8426
-10.3305
-9.77586
-9.18243
-8.5577
-7.85628
-7.00533
-6.03151
-5.02968
-4.05814
-3.17402
-2.45781
-1.88402
-1.28488
-0.57554
0.165027
0.802695
1.18583
1.25269
1.08747
0.75486
0.221463
-0.553447
-1.55827
-2.72111
-3.96374
-5.25138
-6.56763
-7.89775
-9.23358
-10.5723
-11.9137
-13.2586
-14.6071
-15.9584
-17.3119
-18.6672
-20.0081
-21.1827
-21.6319
-21.0406
-19.9475
-18.8045
-17.6319
-16.4322
-15.2136
-13.9842
-12.7478
-11.5055
-10.258
-9.00634
-7.75104
-6.49313
-5.23358
-3.97367
-2.71487
-1.45705
-0.199748
1.05711
2.31321
3.56825
4.82297
6.07824
7.3341
8.59076
9.53385
0.300654
-0.606792
-1.81017
-3.00498
-4.19192
-5.36858
-6.52975
-7.66827
-8.77787
-9.85777
-10.9133
-11.9527
-12.9844
-14.0153
-15.0498
-16.0894
-17.0529
-17.4728
-16.977
-15.9757
-14.9456
-13.9669
-13.0327
-12.1414
-11.3156
-10.5688
-9.86544
-9.17946
-8.56775
-8.10407
-7.80189
-7.63062
-7.56366
-7.59685
-7.71647
-7.89348
-8.14043
-8.49113
-8.89218
-9.21284
-9.42615
-9.64581
-9.9315
-10.2641
-10.5994
-10.8524
-11.0061
-11.1209
-11.2119
-11.2714
-11.313
-11.3555
-11.4001
-11.4302
-11.4346
-11.376
-11.2341
-11.0605
-10.8286
-10.4535
-9.98111
-9.47023
-8.90952
-8.29982
-7.66006
-6.9932
-6.22688
-5.30826
-4.30854
-3.30995
-2.35744
-1.53367
-0.89191
-0.312907
0.346828
1.07084
1.72152
2.10695
2.14822
1.92972
1.50953
0.845857
-0.084803
-1.21691
-2.46239
-3.76663
-5.09839
-6.44046
-7.78646
-9.13366
-10.4816
-11.8313
-13.1836
-14.5383
-15.8951
-17.2536
-18.6133
-19.974
-21.273
-21.9842
-21.6032
-20.5448
-19.3606
-18.1505
-16.9232
-15.6867
-14.4438
-13.1948
-11.941
-10.6832
-9.42307
-8.16178
-6.89964
-5.63694
-4.37494
-3.11461
-1.85527
-0.596615
0.661322
1.91847
3.17499
4.43196
5.69004
6.94897
8.20858
9.1537
-0.182227
-1.10815
-2.33332
-3.54438
-4.74304
-5.93208
-7.11208
-8.2786
-9.42257
-10.5359
-11.6175
-12.6735
-13.7127
-14.7441
-15.7747
-16.8023
-17.5342
-17.4343
-16.5491
-15.439
-14.3734
-13.3615
-12.4062
-11.5018
-10.6509
-9.85743
-9.09567
-8.35033
-7.67729
-7.15034
-6.78912
-6.57967
-6.50281
-6.52898
-6.62944
-6.79933
-7.06164
-7.42583
-7.82799
-8.14618
-8.36081
-8.59343
-8.90459
-9.25888
-9.60212
-9.85822
-10.0156
-10.1437
-10.2591
-10.3378
-10.3878
-10.4341
-10.4821
-10.5144
-10.5212
-10.4716
-10.3383
-10.1492
-9.90068
-9.54567
-9.09902
-8.60343
-8.05317
-7.43388
-6.77249
-6.10813
-5.40227
-4.56339
-3.60021
-2.59764
-1.60601
-0.684834
0.072056
0.679491
1.28958
1.98444
2.63517
3.00455
2.9969
2.68385
2.11546
1.2685
0.167264
-1.07054
-2.36376
-3.69338
-5.03954
-6.39045
-7.74451
-9.10051
-10.4577
-11.8158
-13.1749
-14.535
-15.8957
-17.2571
-18.6188
-19.9809
-21.3297
-22.2342
-22.0803
-21.083
-19.8614
-18.6257
-17.3814
-16.1312
-14.8758
-13.6159
-12.3533
-11.0892
-9.82459
-8.56017
-7.29574
-6.03128
-4.76784
-3.50606
-2.24526
-0.985287
0.274001
1.53312
2.79266
4.05295
5.31367
6.57557
7.83972
8.78885
-0.611661
-1.55987
-2.81521
-4.05367
-5.27391
-6.47866
-7.67159
-8.85528
-10.0261
-11.1746
-12.2925
-13.377
-14.4336
-15.4725
-16.5035
-17.448
-17.8126
-17.2148
-16.1017
-14.9587
-13.8568
-12.8067
-11.8196
-10.8972
-10.0277
-9.19194
-8.37375
-7.5776
-6.84742
-6.24626
-5.80819
-5.54847
-5.45656
-5.4696
-5.54506
-5.70805
-5.99096
-6.36898
-6.76626
-7.08371
-7.30674
-7.55711
-7.89541
-8.2693
-8.62286
-8.88871
-9.05355
-9.19494
-9.33185
-9.43005
-9.49464
-9.54904
-9.59836
-9.62962
-9.6364
-9.59389
-9.46495
-9.24408
-8.95183
-8.59329
-8.16421
-7.69418
-7.17862
-6.57509
-5.90632
-5.22987
-4.55041
-3.78798
-2.88855
-1.90673
-0.902903
0.0817781
0.95901
1.65263
2.25173
2.90948
3.5331
3.85065
3.73597
3.24125
2.44192
1.39118
0.173824
-1.105
-2.40334
-3.72737
-5.07106
-6.42324
-7.77991
-9.13918
-10.4997
-11.8608
-13.2221
-14.5836
-15.9451
-17.3069
-18.6689
-20.0312
-21.3936
-22.4272
-22.4823
-21.5645
-20.3194
-19.0673
-17.8097
-16.548
-15.2835
-14.017
-12.7493
-11.482
-10.2156
-8.94917
-7.68235
-6.41606
-5.15148
-3.88849
-2.62631
-1.36467
-0.102972
1.15943
2.42233
3.68587
4.95078
6.21817
7.48929
8.4444
-0.987654
-1.9544
-3.23763
-4.50797
-5.76135
-6.99552
-8.21035
-9.40962
-10.597
-11.7713
-12.925
-14.0481
-15.1357
-16.1932
-17.2319
-17.9758
-17.8672
-16.9231
-15.7207
-14.5478
-13.4122
-12.3243
-11.298
-10.3406
-9.43677
-8.55343
-7.68241
-6.84872
-6.07967
-5.40732
-4.87826
-4.55212
-4.42833
-4.41308
-4.46028
-4.61974
-4.92463
-5.31679
-5.70986
-6.03112
-6.27013
-6.54254
-6.90555
-7.2962
-7.66443
-7.94754
-8.12714
-8.28235
-8.43081
-8.54124
-8.62445
-8.69519
-8.75067
-8.78148
-8.78614
-8.74516
-8.60623
-8.33949
-7.99228
-7.61208
-7.18929
-6.73895
-6.2636
-5.70709
-5.05813
-4.37431
-3.69902
-2.98366
-2.15104
-1.21277
-0.222201
0.783412
1.7463
2.56455
3.2218
3.85317
4.42014
4.60625
4.24175
3.45659
2.42236
1.24171
-0.00526625
-1.273
-2.5586
-3.86878
-5.19878
-6.53946
-7.8872
-9.24002
-10.5959
-11.9535
-13.3123
-14.6716
-16.0314
-17.3915
-18.7521
-20.1131
-21.4744
-22.6013
-22.8398
-22.0036
-20.7439
-19.4798
-18.213
-16.9445
-15.6751
-14.4049
-13.1343
-11.8642
-10.5952
-9.32636
-8.05764
-6.79012
-5.52419
-4.2595
-2.99568
-1.73186
-0.467097
0.799012
2.06617
3.33516
4.60776
5.88395
7.16356
8.12523
-1.31878
-2.29845
-3.60136
-4.8973
-6.18253
-7.45319
-8.70485
-9.93481
-11.1443
-12.337
-13.5151
-14.6735
-15.8018
-16.8931
-17.9032
-18.3572
-17.7957
-16.6358
-15.411
-14.2126
-13.0479
-11.9269
-10.863
-9.86234
-8.90738
-7.96683
-7.03868
-6.16146
-5.35912
-4.63243
-4.02118
-3.6143
-3.42382
-3.35463
-3.37458
-3.53741
-3.85835
-4.25953
-4.65712
-4.99515
-5.26131
-5.55789
-5.94006
-6.34906
-6.73345
-7.03423
-7.23903
-7.41292
-7.5649
-7.67854
-7.77532
-7.86089
-7.92234
-7.95179
-7.95113
-7.90267
-7.74317
-7.43668
-7.04504
-6.63577
-6.21042
-5.76983
-5.32146
-4.81869
-4.21165
-3.53421
-2.85136
-2.15535
-1.37935
-0.495584
0.464333
1.45902
2.45288
3.37885
4.15175
4.7622
5.14278
5.01955
4.30148
3.25693
2.1063
0.909086
-0.310185
-1.55148
-2.82028
-4.11339
-5.42298
-6.74233
-8.06977
-9.40457
-10.7455
-12.0917
-13.4421
-14.7952
-16.1502
-17.5065
-18.8639
-20.222
-21.5807
-22.7847
-23.1771
-22.411
-21.1421
-19.8717
-18.6001
-17.3274
-16.0539
-14.7803
-13.507
-12.2344
-10.9622
-9.69101
-8.42133
-7.15305
-5.88569
-4.6191
-3.35266
-2.0848
-0.814934
0.4566
1.73061
3.00788
4.28957
5.57554
6.86437
7.83251
-1.60505
-2.59588
-3.91475
-5.22975
-6.5379
-7.83744
-9.12557
-10.3971
-11.6466
-12.8713
-14.0739
-15.2573
-16.4198
-17.5522
-18.4487
-18.5434
-17.6722
-16.4193
-15.177
-13.9585
-12.7707
-11.6231
-10.528
-9.4874
-8.48139
-7.48452
-6.49674
-5.55783
-4.69805
-3.91713
-3.24702
-2.76118
-2.46815
-2.31381
-2.30149
-2.46927
-2.80265
-3.21096
-3.61912
-3.9838
-4.28671
-4.60841
-5.01036
-5.44752
-5.84567
-6.15336
-6.38301
-6.5773
-6.73334
-6.85013
-6.95447
-7.0447
-7.10251
-7.12403
-7.11116
-7.04311
-6.85955
-6.53279
-6.11908
-5.6851
-5.25192
-4.8145
-4.37524
-3.90821
-3.35019
-2.69754
-2.01124
-1.31989
-0.582045
0.252487
1.17458
2.14186
3.12681
4.10182
4.92685
5.37741
5.35257
4.82977
3.88779
2.7672
1.61628
0.450665
-0.729334
-1.93337
-3.17047
-4.43933
-5.72866
-7.02855
-8.3363
-9.65084
-10.9714
-12.2983
-13.6312
-14.9696
-16.3128
-17.6595
-19.0091
-20.3608
-21.7143
-22.9807
-23.502
-22.7968
-21.5227
-20.2482
-18.9726
-17.6958
-16.4184
-15.1417
-13.8659
-12.5909
-11.3166
-10.0441
-8.77377
-7.50404
-6.23463
-4.96511
-3.69362
-2.41881
-1.14085
0.139316
1.42218
2.70856
3.9992
5.29384
6.59049
7.56362
-1.83309
-2.83608
-4.17207
-5.50549
-6.83318
-8.15375
-9.46795
-10.7736
-12.0655
-13.3376
-14.5838
-15.8022
-16.9952
-18.1575
-18.8944
-18.6234
-17.5477
-16.2764
-15.0223
-13.7902
-12.5865
-11.4205
-10.3026
-9.23071
-8.18376
-7.14282
-6.10756
-5.10849
-4.17395
-3.31624
-2.57674
-2.0062
-1.59805
-1.34133
-1.27215
-1.42085
-1.76585
-2.1929
-2.61182
-2.99918
-3.34215
-3.69971
-4.13399
-4.60157
-5.00472
-5.30803
-5.55
-5.75693
-5.92028
-6.04714
-6.15793
-6.24417
-6.28804
-6.28904
-6.24793
-6.14846
-5.94907
-5.62457
-5.20694
-4.76083
-4.32912
-3.89212
-3.44007
-2.9832
-2.46941
-1.85973
-1.18765
-0.494847
0.230239
1.03108
1.91284
2.84795
3.81145
4.7348
5.36244
5.42443
4.99062
4.245
3.26632
2.1707
1.04834
-0.087813
-1.23611
-2.40224
-3.59911
-4.83305
-6.09598
-7.37572
-8.66624
-9.96447
-11.2688
-12.5787
-13.8933
-15.2131
-16.5384
-17.869
-19.2045
-20.5443
-21.8877
-23.1889
-23.7985
-23.1504
-21.885
-20.6086
-19.3286
-18.0481
-16.7678
-15.4889
-14.2109
-12.9336
-11.6579
-10.3842
-9.11126
-7.83781
-6.5635
-5.28712
-4.00744
-2.72411
-1.4372
-0.147493
1.14442
2.4393
3.73793
5.0392
6.34133
7.31797
-2.00815
-3.0202
-4.36923
-5.71707
-7.06078
-8.39846
-9.73213
-11.061
-12.3817
-13.693
-14.9899
-16.2645
-17.5044
-18.6758
-19.2543
-18.6987
-17.4853
-16.2091
-14.9494
-13.7106
-12.4993
-11.3244
-10.1942
-9.10228
-8.02875
-6.96287
-5.90485
-4.87404
-3.88991
-2.96311
-2.13972
-1.4662
-0.930473
-0.536026
-0.336643
-0.397152
-0.73508
-1.19878
-1.63777
-2.04827
-2.44089
-2.85271
-3.32133
-3.79461
-4.19315
-4.50122
-4.75101
-4.96015
-5.12887
-5.26541
-5.37534
-5.44508
-5.46188
-5.42732
-5.34373
-5.20978
-5.01039
-4.71474
-4.31407
-3.86975
-3.4518
-3.0177
-2.53828
-2.06957
-1.58883
-1.02675
-0.379237
0.312818
1.04045
1.82552
2.67321
3.57899
4.47227
5.14437
5.33507
5.00101
4.36517
3.57265
2.61377
1.54271
0.439491
-0.675261
-1.80053
-2.94091
-4.10329
-5.29454
-6.51866
-7.77048
-9.04031
-10.3212
-11.6104
-12.9067
-14.2084
-15.515
-16.8257
-18.1403
-19.4596
-20.7838
-22.1127
-23.3651
-23.909
-23.2621
-22.0371
-20.7911
-19.5432
-18.3004
-17.0604
-15.8107
-14.541
-13.2613
-11.9825
-10.7043
-9.42455
-8.14325
-6.85987
-5.57316
-4.28365
-2.99135
-1.69585
-0.398172
0.901032
2.20278
3.50727
4.81257
6.11758
7.09619
-2.15148
-3.16712
-4.52133
-5.87516
-7.22652
-8.57396
-9.9192
-11.2615
-12.5984
-13.9315
-15.2608
-16.5819
-17.8755
-19.0446
-19.4905
-18.7692
-17.4938
-16.2183
-14.9593
-13.7215
-12.5113
-11.3375
-10.2064
-9.10757
-8.02466
-6.9571
-5.90664
-4.87904
-3.8844
-2.93115
-2.05626
-1.29411
-0.632035
-0.0646441
0.358655
0.507875
0.26552
-0.219004
-0.70537
-1.16447
-1.61835
-2.08056
-2.56473
-3.02307
-3.41655
-3.73997
-3.99713
-4.20032
-4.36511
-4.49744
-4.58788
-4.61995
-4.59061
-4.51279
-4.39411
-4.23897
-4.05113
-3.8049
-3.4556
-3.03262
-2.61702
-2.18554
-1.70348
-1.22911
-0.758685
-0.219519
0.40672
1.09186
1.82616
2.60835
3.4373
4.28056
4.9383
5.16405
4.9372
4.402
3.69913
2.88251
1.93857
0.895469
-0.191167
-1.29304
-2.40404
-3.52848
-4.66948
-5.82799
-7.00914
-8.21958
-9.45824
-10.7172
-11.9891
-13.2698
-14.5575
-15.8519
-17.1516
-18.4556
-19.7633
-21.0744
-22.3893
-23.4815
-23.7295
-22.9578
-21.7773
-20.5871
-19.402
-18.2309
-17.0709
-15.8941
-14.6798
-13.4511
-12.2242
-10.977
-9.69858
-8.40624
-7.11149
-5.81433
-4.51538
-3.2147
-1.9125
-0.609531
0.694537
2.00092
3.30899
4.61647
5.92261
6.90187
-2.2571
-3.27502
-4.63231
-5.98899
-7.3431
-8.69411
-10.0436
-11.3909
-12.7346
-14.0766
-15.4179
-16.7573
-18.0859
-19.2585
-19.6365
-18.8565
-17.5732
-16.3039
-15.0521
-13.8226
-12.622
-11.4596
-10.3388
-9.24633
-8.17057
-7.11834
-6.09043
-5.07865
-4.08673
-3.13932
-2.2653
-1.46566
-0.726247
-0.0362335
0.592038
1.04151
1.07888
0.690452
0.155404
-0.370335
-0.876075
-1.36771
-1.854
-2.30276
-2.69143
-3.01392
-3.26404
-3.45619
-3.61122
-3.72343
-3.77123
-3.74489
-3.65876
-3.54185
-3.40673
-3.25095
-3.08224
-2.88824
-2.61234
-2.23953
-1.83102
-1.40966
-0.957902
-0.495478
-0.0171673
0.522171
1.13385
1.81242
2.54975
3.32603
4.12721
4.79125
5.02904
4.82469
4.38359
3.78436
3.04332
2.1948
1.24999
0.229852
-0.836524
-1.92678
-3.02765
-4.13981
-5.26813
-6.41104
-7.56549
-8.73693
-9.93342
-11.1574
-12.4046
-13.6673
-14.94
-16.22
-17.5063
-18.7988
-20.0967
-21.3987
-22.7042
-23.5895
-23.4331
-22.4592
-21.2881
-20.1185
-18.9538
-17.8016
-16.6669
-15.5378
-14.4014
-13.273
-12.1568
-11.0099
-9.81192
-8.57821
-7.30571
-6.00469
-4.69815
-3.39175
-2.08575
-0.779228
0.528785
1.8385
3.14918
4.45865
5.76556
6.74486
-2.30441
-3.3239
-4.68317
-6.04161
-7.39757
-8.7509
-10.1028
-11.4528
-12.8
-14.1461
-15.4922
-16.8374
-18.1798
-19.3743
-19.7671
-18.9956
-17.7225
-16.4647
-15.2261
-14.0119
-12.829
-11.6861
-10.5832
-9.50565
-8.44494
-7.4075
-6.39373
-5.39776
-4.42489
-3.50687
-2.6641
-1.87076
-1.10498
-0.366169
0.352741
1.02789
1.45294
1.3842
0.923609
0.357243
-0.184207
-0.695465
-1.17908
-1.61753
-1.99418
-2.29675
-2.52363
-2.70026
-2.84293
-2.92448
-2.91421
-2.82007
-2.68174
-2.53902
-2.40309
-2.26159
-2.11564
-1.96384
-1.76155
-1.46984
-1.11134
-0.722134
-0.303998
0.142253
0.620946
1.15852
1.76793
2.44366
3.16887
3.92801
4.62069
4.94576
4.75931
4.31881
3.81076
3.18101
2.41106
1.53579
0.576488
-0.437959
-1.48931
-2.57025
-3.66446
-4.76572
-5.88068
-7.01233
-8.15619
-9.30937
-10.4746
-11.6584
-12.8674
-14.1014
-15.3541
-16.619
-17.892
-19.1713
-20.4563
-21.747
-22.9965
-23.6303
-23.1168
-21.9791
-20.7945
-19.6131
-18.4342
-17.26
-16.0983
-14.9581
-13.8416
-12.7496
-11.6824
-10.622
-9.55742
-8.46823
-7.31244
-6.08882
-4.81552
-3.51252
-2.20255
-0.89182
0.41878
1.72934
3.04074
4.35146
5.65935
6.6391
-2.29194
-3.31071
-4.66886
-6.02656
-7.38328
-8.73858
-10.0923
-11.444
-12.794
-14.1436
-15.4929
-16.841
-18.1876
-19.4307
-19.9163
-19.1987
-17.9399
-16.6985
-15.4786
-14.2853
-13.1237
-11.9991
-10.9103
-9.84618
-8.8001
-7.77704
-6.7832
-5.81987
-4.89098
-4.01171
-3.18813
-2.40295
-1.63555
-0.8796
-0.133252
0.615026
1.29976
1.67262
1.53636
1.04538
0.480324
-0.0452115
-0.518898
-0.938548
-1.2942
-1.56705
-1.76031
-1.911
-2.03256
-2.08072
-2.01383
-1.85498
-1.67483
-1.52103
-1.39573
-1.27886
-1.16328
-1.05386
-0.925352
-0.727151
-0.444225
-0.107997
0.267091
0.685917
1.15583
1.6967
2.31403
2.98613
3.6957
4.39519
4.83373
4.75287
4.30549
3.79059
3.24951
2.5943
1.80248
0.903102
-0.069815
-1.08374
-2.13246
-3.21561
-4.31131
-5.40658
-6.50817
-7.62519
-8.75841
-9.90328
-11.0561
-12.2167
-13.3915
-14.5879
-15.8082
-17.0492
-18.3053
-19.5716
-20.8447
-22.1233
-23.2209
-23.5117
-22.7418
-21.5362
-20.3345
-19.1364
-17.9419
-16.7505
-15.564
-14.3936
-13.2499
-12.1335
-11.0459
-9.99095
-8.96914
-7.96361
-6.94818
-5.88919
-4.74379
-3.51234
-2.22827
-0.922702
0.383621
1.68873
2.99524
4.30235
5.60921
6.58964
-2.23118
-3.24881
-4.6054
-5.96173
-7.31781
-8.6731
-10.0267
-11.3786
-12.7293
-14.0789
-15.4277
-16.7748
-18.1131
-19.3916
-20.0105
-19.4275
-18.223
-17.0019
-15.803
-14.6287
-13.4813
-12.3651
-11.2846
-10.2352
-9.21026
-8.21982
-7.26938
-6.34606
-5.45222
-4.59932
-3.78062
-2.98992
-2.221
-1.45836
-0.695983
0.0646605
0.822586
1.48835
1.81126
1.63373
1.1399
0.611861
0.151585
-0.245944
-0.570556
-0.802599
-0.953035
-1.06712
-1.1588
-1.17563
-1.06541
-0.858337
-0.649597
-0.491132
-0.378898
-0.2946
-0.224169
-0.173368
-0.125939
-0.0167837
0.187764
0.457805
0.779082
1.16577
1.63003
2.179
2.80234
3.47525
4.1694
4.70557
4.77199
4.37397
3.82495
3.28124
2.70317
2.02378
1.212
0.290601
-0.694423
-1.71205
-2.76342
-3.85169
-4.95483
-6.05422
-7.15092
-8.25409
-9.37219
-10.5058
-11.6501
-12.8013
-13.9606
-15.131
-16.3172
-17.5246
-18.7533
-19.999
-21.2574
-22.5247
-23.4244
-23.33
-22.3609
-21.1399
-19.9206
-18.7034
-17.4874
-16.2748
-15.0669
-13.8695
-12.6947
-11.5499
-10.4351
-9.34946
-8.29483
-7.27545
-6.29541
-5.33175
-4.3359
-3.26038
-2.08346
-0.836777
0.439146
1.72933
3.02481
4.32201
5.62206
6.59863
-2.13677
-3.15304
-4.50793
-5.8625
-7.21665
-8.56963
-9.92044
-11.2696
-12.6161
-13.9567
-15.2875
-16.6045
-17.898
-19.1511
-19.9206
-19.6242
-18.5667
-17.364
-16.1797
-15.0155
-13.876
-12.7708
-11.7093
-10.6869
-9.69684
-8.75089
-7.84121
-6.94065
-6.05933
-5.21684
-4.40284
-3.60649
-2.82651
-2.0539
-1.27963
-0.50602
0.260789
1.00589
1.63469
1.91934
1.73892
1.29895
0.854844
0.482322
0.195436
0.0080065
-0.099311
-0.17454
-0.229941
-0.214868
-0.0769558
0.154768
0.379176
0.541751
0.638593
0.67869
0.686047
0.66145
0.625944
0.653209
0.777848
0.980185
1.25754
1.62648
2.09423
2.64996
3.27464
3.953
4.57066
4.81068
4.51631
3.95183
3.37056
2.7933
2.17573
1.46669
0.636619
-0.297762
-1.30078
-2.33759
-3.39402
-4.47874
-5.58515
-6.69373
-7.79627
-8.8957
-10.0013
-11.1206
-12.2534
-13.3959
-14.5469
-15.7061
-16.8728
-18.0521
-19.2494
-20.4662
-21.701
-22.9178
-23.5844
-23.141
-22.0146
-20.7854
-19.5514
-18.319
-17.0846
-15.8482
-14.6155
-13.3917
-12.1854
-11.0077
-9.86184
-8.74439
-7.65587
-6.60097
-5.58478
-4.60957
-3.66719
-2.71359
-1.68601
-0.570665
0.61995
1.8707
3.1448
4.42328
5.70835
6.67482
-2.01992
-3.03384
-4.38467
-5.73357
-7.08097
-8.42613
-9.76672
-11.1012
-12.4247
-13.7299
-15.0095
-16.2617
-17.4919
-18.7062
-19.6728
-19.7954
-18.9552
-17.7629
-16.5871
-15.4337
-14.3122
-13.2343
-12.2073
-11.2224
-10.2712
-9.35692
-8.46438
-7.57426
-6.6976
-5.85159
-5.03424
-4.23294
-3.43963
-2.65097
-1.86304
-1.07679
-0.301498
0.449975
1.16591
1.76713
2.04987
1.9279
1.59335
1.25973
1.01144
0.8651
0.796202
0.758344
0.73833
0.779166
0.932512
1.17432
1.40582
1.56566
1.63435
1.61181
1.53057
1.4154
1.30647
1.2656
1.32049
1.4722
1.72682
2.09438
2.57329
3.14062
3.77075
4.4083
4.80252
4.68053
4.16145
3.54598
2.9392
2.32381
1.66629
0.918484
0.0691257
-0.869558
-1.89127
-2.95491
-4.02312
-5.103
-6.20544
-7.31963
-8.43092
-9.53619
-10.6401
-11.7498
-12.8705
-14.0019
-15.1425
-16.2919
-17.4496
-18.6158
-19.7918
-20.9808
-22.1871
-23.2685
-23.6188
-22.9027
-21.6965
-20.4614
-19.2167
-17.9731
-16.7291
-15.4778
-14.2212
-12.9687
-11.7303
-10.5161
-9.33356
-8.18163
-7.05716
-5.96381
-4.90718
-3.89241
-2.92459
-1.99553
-1.06225
-0.0801637
0.984345
2.14915
3.37757
4.62694
5.88514
6.83225
-1.8706
-2.8792
-4.22148
-5.55871
-6.88992
-8.21434
-9.52837
-10.8254
-12.0993
-13.3466
-14.5704
-15.7789
-16.9836
-18.1941
-19.3442
-19.8759
-19.3195
-18.1876
-17.0277
-15.8983
-14.8086
-13.7687
-12.782
-11.8351
-10.9124
-10.0086
-9.1174
-8.23311
-7.35884
-6.503
-5.67112
-4.85736
-4.04991
-3.24361
-2.43984
-1.64113
-0.855409
-0.0946311
0.634609
1.32885
1.91637
2.22921
2.22202
2.05413
1.88078
1.77502
1.7408
1.73461
1.73966
1.79643
1.95833
2.20264
2.43356
2.57529
2.58946
2.47397
2.27947
2.07056
1.90071
1.81051
1.82596
1.96034
2.21558
2.59098
3.07849
3.65694
4.25866
4.70888
4.76342
4.37866
3.7851
3.15849
2.51889
1.86081
1.15781
0.369438
-0.497546
-1.43846
-2.46787
-3.54788
-4.63244
-5.71789
-6.81766
-7.93406
-9.05349
-10.1666
-11.2759
-12.3859
-13.5
-14.6214
-15.7512
-16.889
-18.036
-19.1936
-20.3599
-21.5326
-22.7159
-23.6022
-23.5771
-22.6469
-21.4149
-20.1715
-18.9186
-17.6644
-16.4114
-15.1531
-13.8838
-12.6095
-11.341
-10.0887
-8.86366
-7.6694
-6.50373
-5.36893
-4.26974
-3.21055
-2.19831
-1.23983
-0.321799
0.592832
1.5528
2.60306
3.74676
4.94628
6.16653
7.0868
-1.66938
-2.66723
-3.99273
-5.31007
-6.61489
-7.90355
-9.17344
-10.4196
-11.6429
-12.8511
-14.0541
-15.2606
-16.4755
-17.7015
-18.9342
-19.7687
-19.6057
-18.6507
-17.5183
-16.4219
-15.3693
-14.3694
-13.4215
-12.5037
-11.5923
-10.6841
-9.78657
-8.90216
-8.02833
-7.16448
-6.31308
-5.47669
-4.65111
-3.82809
-3.00751
-2.19592
-1.39853
-0.624397
0.11917
0.829739
1.50019
2.07009
2.44274
2.60431
2.64732
2.67434
2.70729
2.73132
2.75805
2.83093
2.99809
3.23943
3.45953
3.54657
3.44552
3.19982
2.90276
2.62853
2.41984
2.31006
2.3251
2.47317
2.74763
3.13224
3.57565
4.02344
4.39939
4.54029
4.36141
3.93871
3.38154
2.75457
2.08386
1.38113
0.629714
-0.190435
-1.07363
-2.02184
-3.04328
-4.11721
-5.20959
-6.30839
-7.41693
-8.53744
-9.66439
-10.7868
-11.9029
-13.0176
-14.1334
-15.251
-16.3728
-17.5009
-18.6365
-19.7815
-20.9369
-22.1012
-23.2576
-23.9295
-23.5388
-22.4274
-21.1824
-19.93
-18.671
-17.4078
-16.1414
-14.8701
-13.5908
-12.3056
-11.0176
-9.73518
-8.46985
-7.22727
-6.0116
-4.8279
-3.68007
-2.57254
-1.51165
-0.506093
0.442264
1.35194
2.26222
3.22166
4.262
5.37774
6.54367
7.4356
-1.40849
-2.39035
-3.68931
-4.97468
-6.24254
-7.4885
-8.71408
-9.9238
-11.1257
-12.3287
-13.5394
-14.7611
-15.9951
-17.2409
-18.4967
-19.5662
-19.8545
-19.1543
-18.0636
-17.0024
-15.9879
-15.0257
-14.1064
-13.202
-12.2895
-11.3718
-10.464
-9.57262
-8.69424
-7.82308
-6.95575
-6.09426
-5.24399
-4.40273
-3.5657
-2.73985
-1.93131
-1.14334
-0.384193
0.341119
1.02497
1.65393
2.19853
2.62153
2.94597
3.20755
3.39737
3.52412
3.60339
3.6706
3.78975
3.9686
4.1279
4.13905
3.95172
3.65978
3.36899
3.11252
2.91004
2.81282
2.83589
2.94975
3.14495
3.41362
3.66876
3.8145
3.84667
3.76105
3.56494
3.26896
2.83808
2.26719
1.5959
0.860686
0.0720049
-0.771524
-1.67318
-2.62904
-3.63433
-4.68745
-5.77152
-6.87627
-7.9988
-9.12914
-10.263
-11.3955
-12.521
-13.6416
-14.7616
-15.882
-17.0025
-18.1247
-19.2514
-20.3851
-21.5272
-22.6795
-23.7544
-24.169
-23.4875
-22.2603
-21.0046
-19.7449
-18.4818
-17.2141
-15.9365
-14.6461
-13.3483
-12.0491
-10.7471
-9.44432
-8.14885
-6.86507
-5.59879
-4.36033
-3.15693
-1.99269
-0.874548
0.186662
1.18521
2.1259
3.02978
3.94222
4.90477
5.93005
7.02015
7.87035
-1.08191
-2.04184
-3.30739
-4.55458
-5.78371
-6.99594
-8.19802
-9.39857
-10.605
-11.8222
-13.0528
-14.2969
-15.5526
-16.8181
-18.0933
-19.3319
-20.0159
-19.6425
-18.6596
-17.6343
-16.6561
-15.7218
-14.816
-13.9135
-12.9954
-12.0681
-11.148
-10.2425
-9.35149
-8.46949
-7.59026
-6.70983
-5.83253
-4.96752
-4.11519
-3.27648
-2.45704
-1.65878
-0.88647
-0.147709
0.549385
1.18613
1.74825
2.24394
2.69112
3.08837
3.41538
3.64582
3.75337
3.77193
3.7898
3.84904
3.91032
3.88616
3.74062
3.53935
3.35278
3.18778
3.04608
2.97424
2.96624
2.96088
2.95562
2.98008
2.99974
2.94789
2.82967
2.68603
2.53299
2.34969
2.06415
1.61163
0.995325
0.263568
-0.537807
-1.39469
-2.30387
-3.25312
-4.24221
-5.27794
-6.34943
-7.44632
-8.56904
-9.70775
-10.8505
-11.9923
-13.1289
-14.2583
-15.3835
-16.5078
-17.6318
-18.7545
-19.877
-21.0026
-22.1345
-23.2741
-24.1971
-24.2952
-23.4094
-22.1454
-20.8825
-19.6187
-18.354
-17.0863
-15.8041
-14.4992
-13.1827
-11.8658
-10.5467
-9.22437
-7.9037
-6.58846
-5.28229
-3.99415
-2.73247
-1.50389
-0.31586
0.819502
1.88712
2.88205
3.81171
4.70978
5.62728
6.58843
7.60153
8.39328
-0.685796
-1.62
-2.85118
-4.06597
-5.2699
-6.46947
-7.67197
-8.88416
-10.1112
-11.3543
-12.6109
-13.8779
-15.1549
-16.4423
-17.7401
-19.0473
-20.0233
-20.0758
-19.3017
-18.3109
-17.3611
-16.4411
-15.5385
-14.6334
-13.7072
-12.7689
-11.8352
-10.913
-10.0043
-9.10591
-8.21333
-7.31627
-6.41336
-5.52456
-4.6608
-3.8149
-2.98566
-2.17995
-1.40203
-0.655352
0.0500182
0.681642
1.22786
1.7187
2.1546
2.52041
2.80699
2.97893
3.02509
2.99657
2.96318
2.96302
2.97888
2.9551
2.85987
2.72222
2.59232
2.49133
2.41593
2.3622
2.30423
2.21014
2.09321
1.99306
1.91874
1.83716
1.72202
1.58557
1.44679
1.30429
1.10894
0.76876
0.241119
-0.437451
-1.21683
-2.07058
-2.97071
-3.89837
-4.86681
-5.8893
-6.95357
-8.04059
-9.14896
-10.2806
-11.4272
-12.5782
-13.7262
-14.8666
-15.9996
-17.1282
-18.2555
-19.3822
-20.507
-21.63
-22.7545
-23.8846
-24.6329
-24.3946
-23.3416
-22.0769
-20.8144
-19.5526
-18.2898
-17.024
-15.7419
-14.4309
-13.1033
-11.7738
-10.443
-9.10967
-7.77518
-6.43969
-5.1041
-3.77391
-2.45967
-1.17263
0.08686
1.29826
2.40389
3.38693
4.29157
5.16843
6.06614
7.01274
8.00808
8.78041
-0.225175
-1.13686
-2.34241
-3.54024
-4.73912
-5.94745
-7.17107
-8.41219
-9.66998
-10.9406
-12.2209
-13.5112
-14.8125
-16.1243
-17.4445
-18.7709
-19.9594
-20.4515
-19.9568
-19.022
-18.0888
-17.174
-16.2693
-15.3547
-14.4168
-13.4674
-12.522
-11.5873
-10.6617
-9.74221
-8.82754
-7.90921
-6.98922
-6.08716
-5.21263
-4.35999
-3.5245
-2.71537
-1.94259
-1.20223
-0.505893
0.0952317
0.591895
1.04311
1.43354
1.70192
1.86086
1.93139
1.92501
1.88303
1.84939
1.849
1.86532
1.84374
1.75151
1.61424
1.48314
1.3924
1.34017
1.29256
1.21583
1.10529
0.983138
0.881374
0.806409
0.725996
0.61421
0.484233
0.355249
0.230261
0.077516
-0.192167
-0.636207
-1.23966
-1.97284
-2.79805
-3.67375
-4.57974
-5.52387
-6.52432
-7.57776
-8.65955
-9.75528
-10.8685
-12.0031
-13.1542
-14.3109
-15.4567
-16.5822
-17.6925
-18.7914
-19.8807
-20.9652
-22.0457
-23.1236
-24.205
-24.84
-24.4362
-23.3085
-22.049
-20.795
-19.5416
-18.2823
-17.0156
-15.7314
-14.4176
-13.0838
-11.7475
-10.4145
-9.0842
-7.75311
-6.41675
-5.07418
-3.73042
-2.39754
-1.09448
0.172828
1.36539
2.38846
3.24273
4.04824
4.89503
5.81359
6.80863
7.86455
8.6805
0.284548
-0.613253
-1.80991
-3.01284
-4.23086
-5.46737
-6.7243
-7.99941
-9.28648
-10.5828
-11.8891
-13.2062
-14.5326
-15.8656
-17.2029
-18.5429
-19.856
-20.6998
-20.5607
-19.7544
-18.8291
-17.9155
-17.0018
-16.0689
-15.1161
-14.1581
-13.2067
-12.2648
-11.3247
-10.3801
-9.43428
-8.49632
-7.57442
-6.66765
-5.777
-4.91322
-4.07899
-3.27626
-2.51723
-1.80637
-1.14901
-0.597702
-0.180682
0.186879
0.51083
0.700014
0.784825
0.822891
0.811588
0.769832
0.735759
0.734986
0.751746
0.732337
0.643114
0.506231
0.372888
0.280281
0.228032
0.182306
0.107846
-0.00266575
-0.126539
-0.221377
-0.266625
-0.297353
-0.354047
-0.432629
-0.516293
-0.605482
-0.726821
-0.951182
-1.33688
-1.88526
-2.56794
-3.34463
-4.1858
-5.077
-6.0095
-6.9896
-8.0237
-9.09257
-10.1711
-11.2561
-12.3569
-13.4764
-14.6071
-15.7255
-16.812
-17.8694
-18.8985
-19.9036
-20.8987
-21.8908
-22.8826
-23.8799
-24.5566
-24.3401
-23.3182
-22.0645
-20.8206
-19.5758
-18.3181
-17.0492
-15.7615
-14.4427
-13.1059
-11.7703
-10.4412
-9.11765
-7.79709
-6.47863
-5.16525
-3.86224
-2.57856
-1.33649
-0.164743
0.880996
1.7463
2.49682
3.27227
4.1494
5.13455
6.204
7.32802
8.18973
0.819484
-0.08059
-1.293
-2.52397
-3.77829
-5.05387
-6.34581
-7.65206
-8.96931
-10.2957
-11.6302
-12.9711
-14.3165
-15.6645
-17.0138
-18.3641
-19.7153
-20.8183
-21.1029
-20.4981
-19.5773
-18.6578
-17.7247
-16.7706
-15.8051
-14.8408
-13.8869
-12.9402
-11.9836
-11.01
-10.0375
-9.08961
-8.16458
-7.2435
-6.33299
-5.46504
-4.64912
-3.87233
-3.14637
-2.49092
-1.89611
-1.40154
-1.05494
-0.769231
-0.514844
-0.372479
-0.313457
-0.287315
-0.301639
-0.343058
-0.377721
-0.37901
-0.36184
-0.379088
-0.452911
-0.551043
-0.635564
-0.682931
-0.690545
-0.684481
-0.69618
-0.735801
-0.785897
-0.801786
-0.75352
-0.678661
-0.629495
-0.61253
-0.617452
-0.655833
-0.754476
-0.963709
-1.34404
-1.89152
-2.55444
-3.30307
-4.1283
-5.01972
-5.96194
-6.94432
-7.96584
-9.01342
-10.0643
-11.1141
-12.172
-13.2401
-14.3125
-15.3768
-16.4165
-17.4226
-18.3963
-19.3497
-20.2965
-21.2435
-22.1956
-23.1585
-23.9927
-24.1527
-23.3572
-22.1301
-20.8926
-19.6527
-18.3978
-17.1329
-15.8474
-14.5277
-13.1935
-11.864
-10.5423
-9.22867
-7.92574
-6.641
-5.38764
-4.17257
-2.98989
-1.8523
-0.813423
0.0722543
0.829788
1.57434
2.4144
3.38182
4.45147
5.58396
6.75021
7.6365
1.34143
0.41614
-0.838863
-2.11868
-3.41698
-4.7316
-6.05908
-7.39675
-8.74274
-10.0939
-11.4479
-12.8036
-14.1606
-15.5184
-16.8769
-18.2362
-19.596
-20.8768
-21.5305
-21.14
-20.2224
-19.2661
-18.2925
-17.3033
-16.3086
-15.319
-14.3409
-13.3691
-12.3836
-11.3805
-10.3886
-9.42508
-8.47448
-7.52446
-6.59584
-5.72625
-4.92416
-4.17814
-3.49879
-2.89262
-2.35957
-1.93493
-1.63447
-1.3969
-1.19437
-1.06456
-0.992299
-0.951631
-0.949852
-0.97503
-0.998133
-0.995084
-0.973674
-0.972223
-0.994884
-1.00456
-0.988023
-0.943129
-0.862205
-0.755376
-0.644339
-0.542331
-0.44297
-0.324415
-0.179483
-0.0399805
0.0618893
0.124502
0.154211
0.130367
0.0212168
-0.226024
-0.673154
-1.28311
-1.97761
-2.7412
-3.58099
-4.49057
-5.45223
-6.44735
-7.46779
-8.5022
-9.53327
-10.5612
-11.5951
-12.634
-13.6709
-14.6968
-15.6985
-16.6701
-17.6219
-18.5669
-19.5121
-20.4617
-21.4211
-22.3962
-23.3549
-23.8475
-23.3704
-22.2493
-21.0161
-19.7799
-18.5336
-17.2786
-15.9987
-14.6842
-13.3583
-12.0394
-10.7312
-9.43827
-8.16783
-6.93348
-5.75775
-4.64159
-3.55991
-2.53152
-1.61753
-0.833835
-0.103955
0.694993
1.63541
2.70272
3.84506
5.02447
6.22305
7.12845
1.75393
0.786093
-0.522834
-1.85354
-3.19405
-4.5405
-5.8935
-7.2512
-8.61203
-9.9745
-11.3377
-12.7014
-14.0654
-15.4299
-16.795
-18.1605
-19.5262
-20.8718
-21.6625
-21.3489
-20.4061
-19.3956
-18.3741
-17.344
-16.3076
-15.2744
-14.2511
-13.236
-12.2194
-11.2001
-10.195
-9.2102
-8.2336
-7.26508
-6.32608
-5.44029
-4.61761
-3.87106
-3.20473
-2.59752
-2.08527
-1.70584
-1.42135
-1.19299
-0.994757
-0.828951
-0.704195
-0.618042
-0.578112
-0.570801
-0.569689
-0.557131
-0.527751
-0.491728
-0.45318
-0.401769
-0.333893
-0.244045
-0.120735
0.0349015
0.206947
0.380141
0.554595
0.736611
0.915806
1.06466
1.16689
1.22685
1.24819
1.20373
1.0449
0.703136
0.145221
-0.544111
-1.28275
-2.07512
-2.93731
-3.86361
-4.83658
-5.83671
-6.85254
-7.87491
-8.89325
-9.91075
-10.9348
-11.9617
-12.9809
-13.9782
-14.9471
-15.8967
-16.8399
-17.7835
-18.7306
-19.6863
-20.6574
-21.6446
-22.64
-23.3916
-23.3408
-22.4219
-21.1934
-19.9636
-18.7312
-17.4877
-16.2107
-14.9036
-13.594
-12.2961
-11.0148
-9.75755
-8.535
-7.36478
-6.26726
-5.23148
-4.23854
-3.31887
-2.50572
-1.77184
-1.00957
-0.101772
0.960559
2.1136
3.30842
4.52153
5.7471
6.6717
1.85182
0.871521
-0.452149
-1.79285
-3.14211
-4.49744
-5.85716
-7.21944
-8.58342
-9.94842
-11.314
-12.6798
-14.0459
-15.4122
-16.7787
-18.1455
-19.5124
-20.8035
-21.4441
-20.9884
-19.9871
-18.9576
-17.9206
-16.8796
-15.8337
-14.7844
-13.7404
-12.7062
-11.6823
-10.6694
-9.66909
-8.68356
-7.71027
-6.74808
-5.81141
-4.91416
-4.06514
-3.28981
-2.58962
-1.94005
-1.3921
-0.977517
-0.644436
-0.372148
-0.135289
0.078514
0.250019
0.372711
0.438136
0.463367
0.477459
0.495146
0.528432
0.581157
0.643215
0.705271
0.772655
0.860234
0.980518
1.13398
1.30587
1.47977
1.65457
1.83707
2.01812
2.16929
2.27173
2.32618
2.33113
2.24103
1.97842
1.50022
0.842632
0.103198
-0.664288
-1.47472
-2.34654
-3.27586
-4.24731
-5.24196
-6.24241
-7.24403
-8.24846
-9.25654
-10.2678
-11.2755
-12.2661
-13.2311
-14.1773
-15.1175
-16.0584
-17.0024
-17.9542
-18.9211
-19.9049
-20.8988
-21.8939
-22.823
-23.1945
-22.5839
-21.4235
-20.2041
-18.9885
-17.7564
-16.4839
-15.1909
-13.907
-12.6409
-11.3985
-10.1888
-9.02497
-7.92539
-6.897
-5.92646
-5.01663
-4.18643
-3.43358
-2.69212
-1.82639
-0.773886
0.39423
1.6049
2.83462
4.074
5.32256
6.26498
1.53114
0.599878
-0.666762
-1.96121
-3.2775
-4.61107
-5.95513
-7.30561
-8.66056
-10.0186
-11.3786
-12.7396
-14.1014
-15.4639
-16.827
-18.1908
-19.5552
-20.7027
-21.0281
-20.3648
-19.3258
-18.2971
-17.2674
-16.2352
-15.2024
-14.1654
-13.1276
-12.0978
-11.0823
-10.0847
-9.10142
-8.12942
-7.17126
-6.22842
-5.30902
-4.42046
-3.56752
-2.76769
-2.02574
-1.33518
-0.736908
-0.245517
0.174123
0.524219
0.827245
1.09122
1.30206
1.45899
1.54265
1.5721
1.58747
1.60564
1.63887
1.69109
1.75231
1.81337
1.87949
1.96485
2.082
2.23322
2.40483
2.57937
2.75454
2.93744
3.12018
3.27366
3.37433
3.4097
3.35493
3.14783
2.73208
2.13518
1.43092
0.675239
-0.107753
-0.924548
-1.79165
-2.71226
-3.67171
-4.64782
-5.62573
-6.60744
-7.59773
-8.59246
-9.58478
-10.5654
-11.5253
-12.4669
-13.4022
-14.339
-15.2789
-16.2258
-17.1881
-18.1684
-19.16
-20.1544
-21.1481
-22.1408
-22.831
-22.6674
-21.7043
-20.4994
-19.3008
-18.0801
-16.8204
-15.5513
-14.2998
-13.0719
-11.8748
-10.7191
-9.61919
-8.58725
-7.61879
-6.70828
-5.86627
-5.09663
-4.35581
-3.51958
-2.48862
-1.30982
-0.078886
1.16538
2.41899
3.68024
4.94774
5.90288
0.971045
0.0938785
-1.09891
-2.32639
-3.58882
-4.87847
-6.18669
-7.50791
-8.83881
-10.1774
-11.5214
-12.8697
-14.2212
-15.5752
-16.9311
-18.2886
-19.6474
-20.6122
-20.5766
-19.7274
-18.6771
-17.6393
-16.6092
-15.582
-14.5588
-13.537
-12.5124
-11.4914
-10.4834
-9.49473
-8.52628
-7.57069
-6.62669
-5.70436
-4.80863
-3.93722
-3.09485
-2.2924
-1.53436
-0.824591
-0.188362
0.366442
0.852442
1.27565
1.65948
1.99412
2.27501
2.50545
2.6373
2.68078
2.69748
2.71613
2.7493
2.80102
2.8614
2.92161
2.97612
3.01931
3.06803
3.14906
3.26256
3.39511
3.55207
3.73988
3.93928
4.13155
4.28462
4.31904
4.16467
3.80788
3.28014
2.64107
1.9361
1.1842
0.401172
-0.410787
-1.26402
-2.16349
-3.09643
-4.04317
-4.99793
-5.96298
-6.93464
-7.90769
-8.87475
-9.8271
-10.7643
-11.6943
-12.626
-13.5618
-14.5034
-15.4595
-16.4355
-17.4249
-18.4181
-19.4114
-20.4055
-21.3998
-22.2846
-22.582
-21.9642
-20.8482
-19.6669
-18.4589
-17.2195
-15.9815
-14.7665
-13.5809
-12.433
-11.3344
-10.2965
-9.3218
-8.40403
-7.54623
-6.75695
-6.00696
-5.1837
-4.16987
-2.98821
-1.74132
-0.480077
0.786711
2.06013
3.34079
4.62599
5.5927
0.359084
-0.497099
-1.65016
-2.82569
-4.03134
-5.26852
-6.53249
-7.81694
-9.11718
-10.429
-11.7495
-13.0778
-14.4121
-15.7514
-17.0948
-18.4416
-19.7496
-20.4806
-20.1093
-19.1067
-18.0446
-16.9939
-15.9544
-14.926
-13.9084
-12.8995
-11.8929
-10.8873
-9.88717
-8.90152
-7.94168
-7.00389
-6.08077
-5.18009
-4.30661
-3.45633
-2.63131
-1.84018
-1.08763
-0.3767
0.279341
0.870381
1.39866
1.87694
2.3224
2.72708
3.09496
3.42694
3.66303
3.77316
3.80748
3.82662
3.85974
3.8961
3.90591
3.88736
3.83251
3.72262
3.6008
3.5254
3.50804
3.54666
3.65567
3.83324
4.05154
4.31812
4.6098
4.76969
4.64327
4.24976
3.70276
3.07132
2.37885
1.64067
0.872462
0.0772584
-0.752002
-1.61674
-2.51154
-3.42772
-4.36019
-5.30403
-6.25221
-7.19998
-8.14027
-9.06932
-9.99287
-10.9184
-11.8497
-12.787
-13.7365
-14.7063
-15.6928
-16.6855
-17.6786
-18.6726
-19.6688
-20.6583
-21.5959
-22.2224
-22.0985
-21.2334
-20.0862
-18.894
-17.6793
-16.4759
-15.3004
-14.1595
-13.0627
-12.02
-11.0358
-10.1072
-9.23233
-8.41893
-7.65107
-6.82544
-5.81985
-4.63718
-3.3767
-2.10094
-0.818915
0.468524
1.76243
3.06234
4.36556
5.34495
-0.252621
-1.1082
-2.25001
-3.3983
-4.56301
-5.75361
-6.97157
-8.21486
-9.48029
-10.7625
-12.0579
-13.3634
-14.6769
-15.9971
-17.3233
-18.6548
-19.8173
-20.2117
-19.5775
-18.5062
-17.4337
-16.3692
-15.3156
-14.2782
-13.2593
-12.257
-11.266
-10.2782
-9.29153
-8.31313
-7.35666
-6.42952
-5.52804
-4.65082
-3.79965
-2.97229
-2.16807
-1.39284
-0.651689
0.0527073
0.712675
1.31826
1.86975
2.37643
2.84899
3.29388
3.70438
4.05499
4.3142
4.46117
4.5213
4.56723
4.6268
4.61978
4.48068
4.27281
4.03938
3.77429
3.52909
3.35002
3.24461
3.22063
3.28402
3.42162
3.62746
3.92793
4.32569
4.69812
4.81898
4.58041
4.08374
3.46516
2.78529
2.06726
1.32489
0.55809
-0.236657
-1.06004
-1.91654
-2.80365
-3.7092
-4.62544
-5.54831
-6.47129
-7.38908
-8.3035
-9.22052
-10.1441
-11.0756
-12.0188
-12.981
-13.963
-14.9552
-15.9494
-16.944
-17.94
-18.9404
-19.9232
-20.8422
-21.6548
-22.027
-21.5794
-20.5568
-19.3831
-18.1959
-17.029
-15.8945
-14.7996
-13.7533
-12.7606
-11.8201
-10.9298
-10.0928
-9.29625
-8.45276
-7.44163
-6.25301
-4.97912
-3.68668
-2.38901
-1.08566
0.22285
1.53652
2.85344
4.17233
5.1631
-0.830341
-1.70553
-2.85913
-4.00206
-5.14772
-6.30696
-7.48655
-8.68939
-9.91575
-11.1635
-12.4297
-13.7107
-15.0027
-16.3036
-17.6116
-18.9259
-19.8819
-19.8714
-19.0158
-17.9259
-16.846
-15.7715
-14.7024
-13.6499
-12.6229
-11.6209
-10.6381
-9.66441
-8.6947
-7.73058
-6.78045
-5.85976
-4.97194
-4.11291
-3.28226
-2.47661
-1.69399
-0.937302
-0.209474
0.486389
1.14353
1.7526
2.31062
2.82397
3.28358
3.66058
3.93797
4.10976
4.19901
4.25457
4.31175
4.40698
4.52657
4.51371
4.2656
3.92042
3.60703
3.33198
3.09791
2.91898
2.81263
2.7851
2.8299
2.93996
3.13053
3.42732
3.83636
4.31393
4.70082
4.76581
4.43224
3.85039
3.18147
2.48512
1.77485
1.04698
0.294648
-0.48836
-1.31011
-2.16476
-3.03883
-3.9278
-4.82627
-5.72631
-6.62784
-7.53553
-8.45101
-9.37389
-10.3081
-11.2619
-12.2374
-13.2271
-14.2217
-15.2178
-16.2153
-17.2154
-18.2232
-19.2022
-20.1073
-20.984
-21.6967
-21.7684
-21.0387
-19.9217
-18.7645
-17.6353
-16.5424
-15.4933
-14.4936
-13.5425
-12.6383
-11.7818
-10.9513
-10.0677
-9.02981
-7.82545
-6.53555
-5.22494
-3.90918
-2.58974
-1.26729
0.057936
1.38513
2.71345
4.04282
5.04052
-1.31902
-2.23917
-3.43998
-4.60577
-5.75268
-6.89842
-8.05381
-9.22549
-10.4173
-11.6299
-12.8625
-14.1136
-15.3804
-16.66
-17.9493
-19.2043
-19.8986
-19.5104
-18.48
-17.3727
-16.2793
-15.1965
-14.1154
-13.0464
-12.0067
-11.0005
-10.0198
-9.05321
-8.09409
-7.14324
-6.20859
-5.29913
-4.41887
-3.57081
-2.75606
-1.96962
-1.20695
-0.467574
0.247378
0.934183
1.58525
2.1918
2.74967
3.21219
3.50257
3.61164
3.59552
3.5217
3.4464
3.41375
3.44694
3.55406
3.70899
3.76654
3.58498
3.24742
2.92788
2.68789
2.50864
2.37997
2.31595
2.31434
2.36823
2.48649
2.68827
2.99048
3.386
3.85498
4.35742
4.73453
4.71339
4.24496
3.58481
2.90739
2.2303
1.5484
0.845384
0.103486
-0.68381
-1.50483
-2.34953
-3.2147
-4.09115
-4.97296
-5.86422
-6.76847
-7.68388
-8.60924
-9.55174
-10.5189
-11.5047
-12.4977
-13.4933
-14.4924
-15.4951
-16.5043
-17.5202
-18.4938
-19.3939
-20.2835
-21.1696
-21.713
-21.4495
-20.5046
-19.3805
-18.2895
-17.2381
-16.2322
-15.2721
-14.3557
-13.4799
-12.6093
-11.6632
-10.5698
-9.33449
-8.02585
-6.6993
-5.36976
-4.0373
-2.70387
-1.37063
-0.0370315
1.29688
2.6311
3.96559
4.96651
-1.66538
-2.63894
-3.91474
-5.14745
-6.33901
-7.5006
-8.64879
-9.80166
-10.968
-12.1517
-13.3538
-14.5739
-15.8112
-17.0646
-18.3317
-19.432
-19.7669
-19.0884
-17.9799
-16.8596
-15.7442
-14.6432
-13.5508
-12.4685
-11.4131
-10.3969
-9.41258
-8.44462
-7.4874
-6.54854
-5.63518
-4.74275
-3.87125
-3.03164
-2.22865
-1.45707
-0.710553
0.0143917
0.718181
1.39751
2.0442
2.63523
3.10647
3.33133
3.27257
3.07098
2.85106
2.65766
2.52106
2.45605
2.46225
2.54461
2.68889
2.80163
2.74549
2.49411
2.18584
1.95439
1.82313
1.76429
1.75856
1.79976
1.88826
2.03853
2.27025
2.59045
2.98662
3.44172
3.95973
4.52097
4.84096
4.61036
4.00982
3.34815
2.70235
2.06711
1.41631
0.71826
-0.0343281
-0.825908
-1.64622
-2.48909
-3.34589
-4.21623
-5.10356
-6.00578
-6.921
-7.8526
-8.80817
-9.78798
-10.7801
-11.7749
-12.7735
-13.7784
-14.7903
-15.815
-16.8368
-17.7998
-18.7007
-19.6065
-20.548
-21.3879
-21.6519
-21.0652
-20.0396
-18.9865
-17.9752
-17.0071
-16.0737
-15.1462
-14.1961
-13.175
-12.0179
-10.7446
-9.42376
-8.09036
-6.75435
-5.41703
-4.08002
-2.74421
-1.40861
-0.0721418
1.26431
2.59994
3.93538
4.93709
-1.8774
-2.88395
-4.21734
-5.5296
-6.80652
-8.0375
-9.22939
-10.3952
-11.5507
-12.7129
-13.8903
-15.0843
-16.2942
-17.5198
-18.761
-19.644
-19.5589
-18.6456
-17.5154
-16.3899
-15.2579
-14.13
-13.0166
-11.9202
-10.8485
-9.81282
-8.81417
-7.84018
-6.88574
-5.96035
-5.06532
-4.18867
-3.32968
-2.50004
-1.70512
-0.943332
-0.208553
0.505281
1.19976
1.87264
2.50027
2.97944
3.1553
2.99838
2.66092
2.31696
2.03469
1.80322
1.62387
1.52333
1.50196
1.5577
1.67425
1.78102
1.78445
1.62377
1.36997
1.17288
1.09434
1.1008
1.15189
1.23928
1.37204
1.56974
1.84568
2.19491
2.6063
3.06964
3.59468
4.20727
4.75547
4.86499
4.44814
3.82187
3.20495
2.61122
2.00748
1.35175
0.632044
-0.134176
-0.932509
-1.7544
-2.59609
-3.4603
-4.34643
-5.24839
-6.16572
-7.10713
-8.07752
-9.06726
-10.063
-11.0617
-12.0672
-13.0824
-14.1089
-15.1533
-16.1792
-17.1285
-18.0319
-18.9552
-19.9094
-20.8627
-21.5458
-21.493
-20.7235
-19.7217
-18.7304
-17.734
-16.7236
-15.6646
-14.5175
-13.294
-12.0073
-10.6876
-9.36444
-8.03835
-6.70891
-5.37694
-4.04514
-2.71416
-1.38137
-0.046284
1.2881
2.62092
3.95381
4.95361
-2.00356
-3.02194
-4.37751
-5.72955
-7.07038
-8.38898
-9.67237
-10.9084
-12.1091
-13.2905
-14.4592
-15.6315
-16.8187
-18.0206
-19.197
-19.8146
-19.3445
-18.2464
-17.0955
-15.96
-14.8204
-13.6729
-12.532
-11.4134
-10.3243
-9.26327
-8.23469
-7.24803
-6.3032
-5.3929
-4.50618
-3.63675
-2.79101
-1.97404
-1.18632
-0.431205
0.294967
0.999883
1.686
2.34745
2.87283
3.04506
2.82022
2.39702
1.95877
1.57367
1.25524
0.984486
0.763124
0.626089
0.576595
0.606011
0.690439
0.766034
0.774715
0.670573
0.487152
0.355009
0.342528
0.408876
0.507719
0.632264
0.801586
1.045
1.36558
1.7488
2.18945
2.68261
3.23706
3.86313
4.51995
4.95228
4.85067
4.33625
3.74495
3.18472
2.61821
1.99901
1.31003
0.567646
-0.210472
-1.01491
-1.84672
-2.7079
-3.59292
-4.49586
-5.41971
-6.37557
-7.36097
-8.35793
-9.35776
-10.3639
-11.3803
-12.4105
-13.4579
-14.5205
-15.5448
-16.4836
-17.3935
-18.3335
-19.2963
-20.2675
-21.1872
-21.6626
-21.2943
-20.3565
-19.2836
-18.1504
-16.9596
-15.7277
-14.4478
-13.1434
-11.8362
-10.5264
-9.21387
-7.89885
-6.5814
-5.26149
-3.93994
-2.61704
-1.29135
0.0362652
1.36346
2.69059
4.01827
5.01375
-2.07207
-3.09428
-4.45632
-5.81757
-7.17855
-8.5373
-9.88286
-11.203
-12.4968
-13.7542
-14.9698
-16.1694
-17.3654
-18.5469
-19.5654
-19.8448
-19.0961
-17.9075
-16.7319
-15.5741
-14.4212
-13.2626
-12.1038
-10.9632
-9.8527
-8.76509
-7.70196
-6.69188
-5.7504
-4.85147
-3.96535
-3.09809
-2.26215
-1.45551
-0.676715
0.0721048
0.792048
1.48927
2.1677
2.7559
3.00989
2.78567
2.29699
1.78409
1.30212
0.874098
0.51789
0.209472
-0.0494902
-0.222698
-0.30466
-0.309345
-0.269554
-0.235918
-0.243643
-0.322745
-0.442694
-0.494138
-0.428877
-0.301428
-0.162673
-0.0131525
0.179267
0.451504
0.80438
1.21992
1.69352
2.22498
2.82037
3.47552
4.17803
4.82547
5.10034
4.84145
4.32006
3.7857
3.24899
2.66294
2.00403
1.28285
0.520174
-0.272497
-1.0985
-1.95884
-2.84469
-3.75108
-4.68702
-5.66161
-6.65993
-7.6631
-8.67168
-9.68909
-10.7191
-11.7696
-12.8416
-13.914
-14.9286
-15.8656
-16.7896
-17.7411
-18.7066
-19.6843
-20.6848
-21.4824
-21.5034
-20.6256
-19.3977
-18.135
-16.8422
-15.5417
-14.2407
-12.9386
-11.6353
-10.3304
-9.02386
-7.71585
-6.40673
-5.09633
-3.78447
-2.47065
-1.15432
0.163432
1.48195
2.80164
4.12197
5.11208
-2.09794
-3.12108
-4.48528
-5.84952
-7.21376
-8.57725
-9.93823
-11.295
-12.6426
-13.9673
-15.2646
-16.5412
-17.7661
-18.8954
-19.7246
-19.7387
-18.8485
-17.6318
-16.4321
-15.2458
-14.0678
-12.8923
-11.722
-10.5701
-9.44471
-8.33537
-7.24322
-6.20256
-5.24218
-4.34003
-3.45967
-2.60165
-1.77014
-0.965943
-0.193015
0.549948
1.26407
1.95451
2.59614
2.97973
2.85864
2.35943
1.77965
1.22463
0.697767
0.225388
-0.170204
-0.512194
-0.803359
-1.00999
-1.1259
-1.17384
-1.19271
-1.2125
-1.25126
-1.32734
-1.39453
-1.3594
-1.21383
-1.0303
-0.857666
-0.691364
-0.489882
-0.208221
0.163698
0.608976
1.11478
1.6808
2.31227
3.00136
3.73347
4.47761
5.0485
5.17926
4.88313
4.40728
3.89713
3.34661
2.71766
2.01069
1.25612
0.470843
-0.351699
-1.21313
-2.10327
-3.02036
-3.97714
-4.97127
-5.97895
-6.99152
-8.0136
-9.04459
-10.0931
-11.1682
-12.2596
-13.331
-14.3343
-15.2772
-16.2175
-17.1756
-18.1441
-19.1332
-20.1476
-21.08
-21.3375
-20.5251
-19.2248
-17.9245
-16.6242
-15.324
-14.0238
-12.7233
-11.4224
-10.1206
-8.81803
-7.51454
-6.21013
-4.90491
-3.59936
-2.29297
-0.984716
0.325084
1.63562
2.9467
4.25873
5.24338
-2.09106
-3.11339
-4.47609
-5.83854
-7.20022
-8.56045
-9.91865
-11.2733
-12.6214
-13.9595
-15.2864
-16.5927
-17.8026
-18.8434
-19.5784
-19.5556
-18.6543
-17.4215
-16.1999
-14.9876
-13.7835
-12.5858
-11.3973
-10.2321
-9.09847
-7.97994
-6.87133
-5.80721
-4.81746
-3.89382
-3.01655
-2.17131
-1.34631
-0.545142
0.225803
0.961363
1.66549
2.3474
2.88242
2.97126
2.5555
1.94082
1.3245
0.722271
0.14986
-0.365918
-0.802972
-1.17604
-1.49257
-1.73005
-1.88303
-1.97752
-2.05438
-2.1339
-2.22149
-2.31501
-2.3443
-2.2293
-2.01118
-1.78389
-1.5862
-1.40833
-1.20542
-0.923658
-0.54098
-0.0689831
0.47245
1.07295
1.73237
2.44849
3.20524
3.96402
4.65399
5.12834
5.23306
4.98777
4.55496
4.04313
3.44144
2.74042
1.98767
1.20895
0.39023
-0.474952
-1.37625
-2.31652
-3.30156
-4.31212
-5.32943
-6.35571
-7.39256
-8.44122
-9.51364
-10.6122
-11.7114
-12.7718
-13.7679
-14.7199
-15.673
-16.6382
-17.6148
-18.6155
-19.6418
-20.6482
-21.0408
-20.299
-19.0029
-17.7033
-16.4034
-15.1035
-13.8036
-12.5036
-11.2035
-9.90318
-8.60272
-7.30188
-6.0003
-4.69807
-3.39586
-2.09375
-0.790837
0.513026
1.81681
3.12071
4.42572
5.4052
-2.03532
-3.0531
-4.40827
-5.7609
-7.11051
-8.45597
-9.79651
-11.1306
-12.4565
-13.7715
-15.0722
-16.3518
-17.5301
-18.5213
-19.2764
-19.3676
-18.5244
-17.278
-16.0382
-14.8058
-13.5834
-12.3683
-11.1605
-9.97471
-8.82363
-7.69429
-6.58059
-5.51298
-4.50939
-3.56517
-2.68345
-1.85207
-1.04768
-0.258733
0.509534
1.23599
1.91926
2.55793
2.92869
2.75867
2.20273
1.56172
0.913766
0.265356
-0.353779
-0.91072
-1.38327
-1.77823
-2.11327
-2.38566
-2.58663
-2.7331
-2.86306
-2.99778
-3.14059
-3.25924
-3.25226
-3.07193
-2.80981
-2.56142
-2.35334
-2.17348
-1.97098
-1.68292
-1.28179
-0.780528
-0.206941
0.421834
1.10319
1.83603
2.59866
3.33262
4.00488
4.62212
5.11017
5.30801
5.15084
4.73765
4.16213
3.46404
2.7092
1.93356
1.11555
0.24188
-0.682412
-1.65814
-2.67171
-3.69638
-4.72623
-5.76568
-6.81801
-7.89147
-8.99038
-10.1045
-11.1975
-12.2404
-13.2344
-14.1982
-15.1624
-16.135
-17.1213
-18.1358
-19.1778
-20.2388
-20.7322
-20.0609
-18.7811
-17.4826
-16.1832
-14.8834
-13.5836
-12.2834
-10.9829
-9.68265
-8.38263
-7.08255
-5.78231
-4.48189
-3.18154
-1.88146
-0.581267
0.719021
2.01874
3.31838
4.6185
5.59386
-1.90179
-2.90976
-4.2498
-5.58385
-6.91249
-8.23483
-9.54897
-10.8531
-12.1461
-13.4265
-14.6929
-15.9434
-17.1148
-18.1136
-18.9295
-19.1673
-18.4331
-17.2014
-15.9489
-14.7037
-13.4701
-12.245
-11.0267
-9.82627
-8.65448
-7.50536
-6.38257
-5.31806
-4.32014
-3.38054
-2.50897
-1.69952
-0.933342
-0.184031
0.559529
1.27317
1.90907
2.40665
2.58049
2.29161
1.74599
1.13774
0.479734
-0.198318
-0.854839
-1.44513
-1.93356
-2.32944
-2.6744
-2.98591
-3.24628
-3.45245
-3.6323
-3.80987
-3.99355
-4.12129
-4.0727
-3.85335
-3.5874
-3.34808
-3.14938
-2.97691
-2.77248
-2.46695
-2.03419
-1.50022
-0.90567
-0.263922
0.428835
1.16626
1.91003
2.5935
3.21476
3.85201
4.5285
5.12359
5.42963
5.32882
4.8674
4.18197
3.4185
2.63508
1.80695
0.913297
-0.0463027
-1.05894
-2.09559
-3.13622
-4.18111
-5.23423
-6.30648
-7.40697
-8.52737
-9.64265
-10.7164
-11.7451
-12.7458
-13.7243
-14.6964
-15.6741
-16.6733
-17.7054
-18.7659
-19.8502
-20.3994
-19.8056
-18.5619
-17.265
-15.9663
-14.6668
-13.3669
-12.0664
-10.7653
-9.46429
-8.16332
-6.86247
-5.56211
-4.26223
-2.96252
-1.66297
-0.363584
0.935336
2.23333
3.5308
4.82818
5.8011
-1.68493
-2.67942
-3.99964
-5.3121
-6.6174
-7.9144
-9.2013
-10.4772
-11.7416
-12.9938
-14.2346
-15.464
-16.6316
-17.6437
-18.4975
-18.8783
-18.3365
-17.1833
-15.9284
-14.6784
-13.4357
-12.2014
-10.9787
-9.77444
-8.59213
-7.434
-6.31547
-5.2656
-4.28684
-3.37968
-2.54987
-1.77244
-1.05499
-0.384244
0.296695
0.969046
1.51246
1.80617
1.79861
1.51347
1.07647
0.553685
-0.0692448
-0.742936
-1.40818
-2.00963
-2.48968
-2.86356
-3.20382
-3.54756
-3.87258
-4.14739
-4.37615
-4.58235
-4.77606
-4.88746
-4.80969
-4.58451
-4.34376
-4.13931
-3.96757
-3.80696
-3.59374
-3.25528
-2.77946
-2.2179
-1.61856
-0.981753
-0.293092
0.431851
1.13536
1.76359
2.36023
3.01648
3.74494
4.49116
5.13258
5.45205
5.32518
4.82821
4.10801
3.29673
2.43594
1.50446
0.510043
-0.524412
-1.58093
-2.64486
-3.71074
-4.78431
-5.87996
-6.99974
-8.12381
-9.22262
-10.2739
-11.2985
-12.3133
-13.3049
-14.2815
-15.2678
-16.2841
-17.3331
-18.4112
-19.4881
-20.0497
-19.5378
-18.3474
-17.0524
-15.7549
-14.4558
-13.1558
-11.8552
-10.5541
-9.25231
-7.94989
-6.64755
-5.34609
-4.0453
-2.74454
-1.44392
-0.143984
1.15506
2.4531
3.75029
5.04682
6.01882
-1.3979
-2.37777
-3.67759
-4.96897
-6.25198
-7.52555
-8.78912
-10.0425
-11.2862
-12.5197
-13.7436
-14.9578
-16.115
-17.128
-17.9973
-18.521
-18.2363
-17.2139
-15.9681
-14.7195
-13.4677
-12.2241
-11.0008
-9.80022
-8.61953
-7.47164
-6.38722
-5.37941
-4.43097
-3.56976
-2.81223
-2.09736
-1.44565
-0.861878
-0.261026
0.324692
0.746773
0.88861
0.779669
0.52486
0.188894
-0.231635
-0.775863
-1.41214
-2.05793
-2.63487
-3.0839
-3.42342
-3.73746
-4.09368
-4.48341
-4.83365
-5.10876
-5.33222
-5.51403
-5.59899
-5.51102
-5.29884
-5.09237
-4.93635
-4.80644
-4.66214
-4.42396
-4.02695
-3.50446
-2.93497
-2.34928
-1.73055
-1.06216
-0.37059
0.284002
0.882738
1.49312
2.18336
2.92782
3.67086
4.35877
4.86951
5.11078
5.02082
4.56325
3.84
2.95546
1.97281
0.952949
-0.0884382
-1.16106
-2.25324
-3.34284
-4.4348
-5.54484
-6.66766
-7.77626
-8.84841
-9.88426
-10.9131
-11.9407
-12.9428
-13.9267
-14.9254
-15.9576
-17.0222
-18.1127
-19.156
-19.701
-19.2695
-18.1394
-16.8462
-15.55
-14.2515
-12.9516
-11.6506
-10.3492
-9.04691
-7.74365
-6.44024
-5.13727
-3.83475
-2.5323
-1.23011
0.0712915
1.37194
2.67189
3.97069
5.26807
6.24043
-1.05456
-2.01987
-3.30072
-4.57273
-5.83607
-7.09043
-8.33586
-9.57281
-10.8016
-12.0217
-13.2344
-14.4338
-15.5732
-16.5841
-17.4698
-18.1484
-18.1555
-17.2924
-16.0645
-14.8213
-13.5682
-12.3262
-11.1115
-9.92383
-8.75858
-7.6348
-6.59289
-5.63493
-4.7305
-3.92262
-3.23993
-2.61543
-2.05741
-1.55668
-1.03244
-0.542995
-0.226324
-0.162797
-0.307284
-0.539921
-0.810114
-1.15006
-1.61092
-2.18899
-2.80406
-3.34703
-3.75067
-4.03655
-4.30809
-4.66612
-5.10477
-5.51854
-5.83881
-6.07924
-6.24775
-6.30909
-6.21945
-6.02505
-5.84454
-5.72835
-5.64786
-5.52214
-5.23399
-4.76105
-4.21237
-3.66449
-3.10381
-2.50713
-1.87376
-1.22989
-0.612969
-0.0079385
0.644563
1.36307
2.10022
2.79583
3.40342
3.8867
4.24921
4.44859
4.38123
3.9666
3.20373
2.23578
1.21046
0.168883
-0.904516
-2.00511
-3.10015
-4.19324
-5.29737
-6.40128
-7.48327
-8.53261
-9.56556
-10.6023
-11.6335
-12.6401
-13.6329
-14.6422
-15.6875
-16.7691
-17.8549
-18.8391
-19.3661
-19.0152
-17.9395
-16.6475
-15.3521
-14.0541
-12.7539
-11.4524
-10.1502
-8.84696
-7.5432
-6.2393
-4.93507
-3.63081
-2.32689
-1.0235
0.279351
1.58194
2.8842
4.18542
5.48508
6.45903
-0.667368
-1.61912
-2.88279
-4.13802
-5.385
-6.62434
-7.85609
-9.08071
-10.2989
-11.5108
-12.7158
-13.8951
-15.0066
-16.0146
-16.9232
-17.728
-18.0149
-17.382
-16.2232
-14.9905
-13.7486
-12.5228
-11.3287
-10.1654
-9.02997
-7.94407
-6.94329
-6.02821
-5.18423
-4.44592
-3.83167
-3.29121
-2.82443
-2.40276
-1.9404
-1.51765
-1.2733
-1.25161
-1.40854
-1.62285
-1.84337
-2.12866
-2.53085
-3.04585
-3.61754
-4.13686
-4.4924
-4.70202
-4.93307
-5.30362
-5.76706
-6.21338
-6.57584
-6.83855
-6.99837
-7.04182
-6.95032
-6.76726
-6.59485
-6.49129
-6.44913
-6.33799
-5.98896
-5.45754
-4.91651
-4.40625
-3.88009
-3.31658
-2.72426
-2.12117
-1.51476
-0.877274
-0.187034
0.535892
1.24381
1.8761
2.4034
2.83245
3.17317
3.42993
3.5671
3.45081
2.96454
2.16905
1.21382
0.200689
-0.846662
-1.91685
-2.98641
-4.06246
-5.14273
-6.21019
-7.26028
-8.29562
-9.33103
-10.3697
-11.3942
-12.3993
-13.3991
-14.4173
-15.4745
-16.5699
-17.6267
-18.5323
-19.0538
-18.7825
-17.7485
-16.4559
-15.1606
-13.8624
-12.5617
-11.2596
-9.95627
-8.65185
-7.34717
-6.04258
-4.73757
-3.43225
-2.12714
-0.822526
0.481626
1.78546
3.08896
4.3919
5.69393
6.66991
-0.24507
-1.18528
-2.43382
-3.67511
-4.90937
-6.13726
-7.35907
-8.5754
-9.7873
-10.994
-12.187
-13.3388
-14.4183
-15.4201
-16.3526
-17.214
-17.7297
-17.4441
-16.4515
-15.2352
-14.0139
-12.8135
-11.6489
-10.5201
-9.42616
-8.38957
-7.43281
-6.55893
-5.77704
-5.11089
-4.56804
-4.09966
-3.69312
-3.32633
-2.91435
-2.53994
-2.34334
-2.3434
-2.50283
-2.70776
-2.89942
-3.14735
-3.50839
-3.97129
-4.48869
-4.97321
-5.28504
-5.43026
-5.62987
-6.0105
-6.48297
-6.93983
-7.33439
-7.61967
-7.77318
-7.80238
-7.70142
-7.50812
-7.32277
-7.21035
-7.18425
-7.07747
-6.68396
-6.13802
-5.63349
-5.16671
-4.68775
-4.16774
-3.6094
-3.02559
-2.40174
-1.7229
-1.0173
-0.318594
0.339987
0.908142
1.37529
1.76786
2.09171
2.34559
2.52152
2.53451
2.27614
1.72387
0.934944
0.0126273
-0.969759
-1.98183
-3.00547
-4.04431
-5.08659
-6.1125
-7.13083
-8.15403
-9.1844
-10.2143
-11.2302
-12.2339
-13.2392
-14.2652
-15.3295
-16.417
-17.4194
-18.2527
-18.7787
-18.5695
-17.5637
-16.27
-14.9738
-13.6745
-12.3727
-11.0696
-9.76557
-8.46027
-7.15449
-5.84883
-4.54307
-3.23689
-1.93046
-0.624366
0.681139
1.98598
3.29022
4.5941
5.89767
6.87512
0.205849
-0.724955
-1.9615
-3.19218
-4.41745
-5.63746
-6.85274
-8.0643
-9.271
-10.4676
-11.6395
-12.7594
-13.8104
-14.8038
-15.7517
-16.6319
-17.3218
-17.4253
-16.7068
-15.5559
-14.3611
-13.1922
-12.064
-10.9766
-9.93063
-8.9452
-8.03377
-7.20563
-6.47784
-5.87064
-5.39625
-4.99353
-4.62431
-4.28298
-3.9154
-3.59058
-3.42596
-3.43458
-3.59047
-3.79286
-3.97549
-4.19919
-4.52329
-4.94416
-5.4134
-5.85588
-6.13612
-6.24599
-6.41517
-6.77717
-7.23858
-7.70232
-8.12716
-8.43367
-8.57985
-8.58972
-8.46357
-8.24123
-8.03473
-7.91192
-7.88741
-7.77681
-7.37042
-6.84915
-6.39745
-5.97858
-5.54376
-5.05762
-4.51981
-3.93232
-3.2762
-2.5687
-1.8669
-1.20606
-0.610063
-0.102292
0.326225
0.694875
1.00453
1.26054
1.45895
1.52102
1.36725
0.988063
0.387172
-0.393888
-1.2813
-2.21921
-3.17785
-4.1556
-5.14042
-6.11934
-7.10663
-8.11078
-9.12577
-10.1414
-11.1476
-12.1478
-13.1552
-14.1847
-15.2464
-16.296
-17.2241
-18.012
-18.549
-18.3693
-17.3767
-16.0834
-14.7868
-13.486
-12.1829
-10.8794
-9.57522
-8.26969
-6.96331
-5.65679
-4.35019
-3.04305
-1.73528
-0.427658
0.879368
2.18578
3.49132
4.7961
6.10063
7.079
0.677978
-0.245072
-1.47289
-2.69658
-3.91617
-5.13157
-6.3424
-7.54834
-8.74632
-9.92608
-11.0691
-12.1554
-13.1839
-14.1686
-15.1159
-15.9984
-16.7747
-17.2138
-16.914
-15.9463
-14.7833
-13.6514
-12.5632
-11.5172
-10.5157
-9.57733
-8.71632
-7.94368
-7.26804
-6.70957
-6.28887
-5.93779
-5.59829
-5.27263
-4.9411
-4.66105
-4.51867
-4.52886
-4.67795
-4.87871
-5.0614
-5.27117
-5.56254
-5.94269
-6.37466
-6.78837
-7.04943
-7.13995
-7.28129
-7.60378
-8.03285
-8.49657
-8.94654
-9.2729
-9.41633
-9.40321
-9.2409
-8.98998
-8.77177
-8.64448
-8.61478
-8.4993
-8.10792
-7.63089
-7.23048
-6.84925
-6.43969
-5.9728
-5.43965
-4.83159
-4.14939
-3.43856
-2.75791
-2.13582
-1.59413
-1.13639
-0.73653
-0.385912
-0.0868455
0.175954
0.394612
0.487999
0.388064
0.104961
-0.354939
-0.996743
-1.77822
-2.62645
-3.50248
-4.40357
-5.31607
-6.23868
-7.18876
-8.16507
-9.15606
-10.1526
-11.1456
-12.1367
-13.1372
-14.1593
-15.208
-16.2086
-17.0647
-17.8256
-18.3581
-18.1591
-17.1604
-15.8737
-14.5818
-13.2846
-11.984
-10.682
-9.379
-8.07417
-6.76824
-5.46239
-4.1565
-2.84942
-1.54081
-0.231868
1.07638
2.38426
3.69198
4.99909
6.30538
7.28466
1.16566
0.247978
-0.974124
-2.19348
-3.40938
-4.62101
-5.82714
-7.02593
-8.21049
-9.36506
-10.4725
-11.5287
-12.5414
-13.5143
-14.4407
-15.3
-16.0851
-16.748
-16.9256
-16.3212
-15.2701
-14.1791
-13.1289
-12.1169
-11.1532
-10.2633
-9.46362
-8.75349
-8.12809
-7.60929
-7.22079
-6.90364
-6.59558
-6.29302
-5.99247
-5.74507
-5.61747
-5.62707
-5.76943
-5.96884
-6.15318
-6.35385
-6.61828
-6.95829
-7.3596
-7.75476
-7.99972
-8.08117
-8.20628
-8.48939
-8.87901
-9.3284
-9.78803
-10.1326
-10.2809
-10.2468
-10.0495
-9.78176
-9.56495
-9.43684
-9.39563
-9.27299
-8.90921
-8.47725
-8.1121
-7.7538
-7.35827
-6.90079
-6.35863
-5.72507
-5.03437
-4.3427
-3.69347
-3.10913
-2.60754
-2.1818
-1.80308
-1.46791
-1.17479
-0.902387
-0.667419
-0.550161
-0.608418
-0.830987
-1.20258
-1.73148
-2.40218
-3.15875
-3.95384
-4.77039
-5.60468
-6.46875
-7.37513
-8.31648
-9.27934
-10.2524
-11.2262
-12.2022
-13.186
-14.1894
-15.2119
-16.1611
-16.9628
-17.7072
-18.1926
-17.8995
-16.8716
-15.6078
-14.3313
-13.0466
-11.7561
-10.4617
-9.16375
-7.86218
-6.55892
-5.25618
-3.95309
-2.64752
-1.33946
-0.0309133
1.27675
2.58461
3.89412
5.20431
6.51321
7.49375
1.66327
0.74862
-0.46969
-1.68509
-2.89764
-4.10632
-5.30748
-6.4946
-7.65493
-8.77458
-9.84959
-10.8855
-11.8834
-12.8338
-13.724
-14.5504
-15.3239
-16.059
-16.5742
-16.4873
-15.7594
-14.7584
-13.7421
-12.7618
-11.8394
-11.0034
-10.2684
-9.61815
-9.0374
-8.55131
-8.1818
-7.88697
-7.61124
-7.33648
-7.06237
-6.83814
-6.7202
-6.7284
-6.86542
-7.06459
-7.25021
-7.44326
-7.6858
-7.99001
-8.36447
-8.7416
-8.96745
-9.04626
-9.16697
-9.42067
-9.77352
-10.1978
-10.6579
-11.0197
-11.1704
-11.1124
-10.8859
-10.6157
-10.4115
-10.2865
-10.2312
-10.0969
-9.7594
-9.362
-9.01573
-8.67722
-8.29727
-7.83948
-7.27759
-6.62129
-5.93628
-5.27772
-4.6624
-4.11212
-3.64435
-3.23833
-2.87162
-2.54771
-2.25547
-1.97127
-1.72383
-1.58751
-1.61157
-1.79211
-2.10258
-2.53966
-3.10929
-3.78245
-4.50411
-5.24009
-5.99668
-6.79874
-7.65737
-8.55869
-9.49004
-10.4378
-11.386
-12.3376
-13.2977
-14.2777
-15.2613
-16.1546
-16.9198
-17.6437
-18.0149
-17.5476
-16.4745
-15.2572
-14.0135
-12.7526
-11.4801
-10.1992
-8.91182
-7.61853
-6.32219
-5.02567
-3.72737
-2.42457
-1.11888
0.18659
1.49151
2.79782
4.10677
5.41709
6.72688
7.70846
2.16554
1.25369
0.0388958
-1.17419
-2.38476
-3.589
-4.77857
-5.94197
-7.06893
-8.15627
-9.20912
-10.2293
-11.2045
-12.1196
-12.9721
-13.7726
-14.5315
-15.2551
-15.9111
-16.2842
-16.0802
-15.3434
-14.3974
-13.4558
-12.5812
-11.7989
-11.1203
-10.5195
-9.97717
-9.52077
-9.16945
-8.89378
-8.64602
-8.39587
-8.14304
-7.93634
-7.82541
-7.83238
-7.96531
-8.16441
-8.35104
-8.53757
-8.7621
-9.03698
-9.38643
-9.74256
-9.94779
-10.0229
-10.1429
-10.3793
-10.704
-11.0996
-11.554
-11.9312
-12.0766
-11.9869
-11.7402
-11.481
-11.2941
-11.1764
-11.1114
-10.9644
-10.6461
-10.272
-9.93751
-9.6197
-9.25709
-8.79067
-8.19924
-7.52771
-6.85855
-6.23443
-5.65442
-5.1343
-4.69312
-4.30356
-3.94597
-3.62694
-3.32882
-3.03193
-2.77397
-2.62284
-2.62281
-2.7705
-3.03021
-3.39625
-3.88297
-4.47189
-5.11587
-5.78282
-6.47564
-7.21823
-8.02782
-8.88749
-9.78188
-10.701
-11.62
-12.536
-13.464
-14.4173
-15.3608
-16.2049
-16.9442
-17.5902
-17.7407
-17.0675
-15.9639
-14.8036
-13.6112
-12.3907
-11.1473
-9.88672
-8.61484
-7.33474
-6.04928
-4.76178
-3.47085
-2.17374
-0.872766
0.428091
1.72927
3.03295
4.33901
5.64623
6.95395
7.93479
2.67265
1.76172
0.547695
-0.664584
-1.86947
-3.0591
-4.22534
-5.35953
-6.45772
-7.52254
-8.55684
-9.55374
-10.4955
-11.3728
-12.1959
-12.9769
-13.7176
-14.4207
-15.096
-15.7005
-16.0107
-15.7736
-15.0671
-14.2012
-13.3746
-12.6418
-12.0071
-11.4421
-10.9332
-10.5073
-10.1786
-9.92259
-9.69635
-9.46506
-9.22989
-9.03769
-8.93226
-8.93837
-9.06701
-9.2648
-9.45318
-9.63501
-9.84428
-10.0959
-10.4211
-10.7542
-10.9418
-11.0105
-11.1261
-11.3529
-11.6613
-12.0322
-12.471
-12.8552
-12.9933
-12.871
-12.6156
-12.3746
-12.201
-12.094
-12.0268
-11.8689
-11.5618
-11.2048
-10.884
-10.5854
-10.231
-9.74639
-9.12492
-8.44956
-7.80392
-7.20906
-6.66189
-6.17123
-5.7487
-5.37231
-5.0259
-4.70632
-4.39356
-4.08413
-3.81985
-3.65947
-3.64117
-3.75762
-3.97622
-4.29033
-4.70921
-5.21926
-5.7832
-6.38133
-7.0203
-7.71628
-8.48048
-9.2949
-10.149
-11.0364
-11.9207
-12.794
-13.6853
-14.608
-15.515
-16.3229
-17.0414
-17.5258
-17.3426
-16.4767
-15.3759
-14.2582
-13.1157
-11.9443
-10.7444
-9.51847
-8.27239
-7.01067
-5.73825
-4.46035
-3.17782
-1.88986
-0.597518
0.696674
1.99289
3.29218
4.59318
5.8954
7.19893
8.17694
3.17999
2.26827
1.05611
-0.147838
-1.33648
-2.50325
-3.64355
-4.75324
-5.83066
-6.87664
-7.88755
-8.85131
-9.75585
-10.6019
-11.4024
-12.1652
-12.8858
-13.5672
-14.227
-14.8827
-15.4789
-15.783
-15.5753
-14.9555
-14.2112
-13.5228
-12.9211
-12.3804
-11.9019
-11.5088
-11.2049
-10.9668
-10.7565
-10.5399
-10.3206
-10.1411
-10.0402
-10.0457
-10.1689
-10.3636
-10.5551
-10.7344
-10.9305
-11.1635
-11.4664
-11.7772
-11.9516
-12.0142
-12.1217
-12.3401
-12.6397
-12.9923
-13.4072
-13.7874
-13.9241
-13.778
-13.5189
-13.2949
-13.1304
-13.0347
-12.9699
-12.8025
-12.5005
-12.159
-11.8563
-11.5732
-11.2121
-10.6987
-10.0556
-9.3883
-8.76924
-8.20178
-7.68237
-7.21852
-6.81025
-6.44291
-6.10764
-5.78471
-5.45229
-5.12987
-4.86365
-4.69865
-4.66338
-4.74905
-4.93556
-5.21146
-5.5731
-6.01799
-6.51808
-7.0527
-7.63568
-8.28837
-9.00879
-9.77411
-10.5869
-11.4368
-12.276
-13.1062
-13.9645
-14.8528
-15.7239
-16.5065
-17.1615
-17.389
-16.8522
-15.84
-14.7522
-13.6564
-12.5464
-11.4155
-10.2597
-9.07739
-7.87003
-6.63847
-5.38698
-4.12275
-2.85024
-1.57222
-0.289964
0.995504
2.28445
3.57664
4.87033
6.16608
7.46386
8.43769
3.68399
2.77764
1.57745
0.391387
-0.776362
-1.92192
-3.04139
-4.13117
-5.18946
-6.21291
-7.1937
-8.12179
-8.99278
-9.81255
-10.5926
-11.3354
-12.0341
-12.6964
-13.346
-14.0001
-14.6648
-15.2746
-15.6151
-15.5064
-15.0335
-14.4323
-13.8554
-13.3347
-12.8854
-12.5254
-12.2454
-12.0213
-11.8225
-11.6192
-11.4146
-11.2461
-11.1489
-11.154
-11.2714
-11.462
-11.6573
-11.8351
-12.0197
-12.2377
-12.5218
-12.813
-12.9772
-13.0351
-13.1336
-13.3426
-13.6352
-13.9742
-14.3651
-14.7362
-14.874
-14.7125
-14.4505
-14.2401
-14.0835
-13.9969
-13.9341
-13.7579
-13.458
-13.133
-12.8506
-12.578
-12.1988
-11.6501
-10.9947
-10.3441
-9.75191
-9.2119
-8.7152
-8.27183
-7.87601
-7.51583
-7.18615
-6.85607
-6.50657
-6.17344
-5.90637
-5.7383
-5.6871
-5.74623
-5.90624
-6.15096
-6.46431
-6.84999
-7.29979
-7.78856
-8.31888
-8.92545
-9.60757
-10.3323
-11.1012
-11.8979
-12.6812
-13.4731
-14.3031
-15.1533
-15.9855
-16.7464
-17.2349
-17.0812
-16.2629
-15.1924
-14.1117
-13.0266
-11.9346
-10.8301
-9.70696
-8.56194
-7.3952
-6.20397
-4.98601
-3.74626
-2.49128
-1.22597
0.0461273
1.32268
2.60323
3.88665
5.17225
6.46101
7.75192
8.72081
4.19786
3.3042
2.12165
0.953896
-0.195244
-1.32239
-2.42403
-3.49536
-4.53087
-5.52522
-6.47318
-7.36891
-8.21141
-9.0081
-9.76723
-10.4864
-11.163
-11.8122
-12.4578
-13.1129
-13.7808
-14.4623
-15.0984
-15.5192
-15.5769
-15.2872
-14.8036
-14.3049
-13.885
-13.5551
-13.296
-13.0823
-12.8925
-12.7021
-12.5114
-12.3521
-12.2584
-12.2633
-12.375
-12.5614
-12.7603
-12.9369
-13.1114
-13.3172
-13.5861
-13.8608
-14.0162
-14.0703
-14.1607
-14.3597
-14.6449
-14.9732
-15.344
-15.704
-15.8398
-15.6679
-15.4061
-15.2075
-15.0583
-14.978
-14.9149
-14.731
-14.4329
-14.1252
-13.8628
-13.5953
-13.1889
-12.6035
-11.9447
-11.3156
-10.7493
-10.2358
-9.75846
-9.32955
-8.94448
-8.59183
-8.26058
-7.91675
-7.55441
-7.21613
-6.94861
-6.77735
-6.71245
-6.75049
-6.88692
-7.10246
-7.37892
-7.7153
-8.11323
-8.56157
-9.05042
-9.61092
-10.2585
-10.9548
-11.6757
-12.4072
-13.1371
-13.8935
-14.6944
-15.5071
-16.2977
-16.9632
-17.139
-16.5853
-15.6024
-14.5351
-13.4609
-12.3825
-11.3002
-10.2113
-9.11036
-7.99349
-6.85991
-5.70601
-4.52605
-3.32025
-2.09313
-0.848709
0.40891
1.67492
2.94625
4.22081
5.49856
6.77958
8.06277
9.02664
4.73397
3.85209
2.68451
1.53223
0.400127
-0.709003
-1.79158
-2.84087
-3.84902
-4.81242
-5.7295
-6.59661
-7.41437
-8.18952
-8.92566
-9.61972
-10.2775
-10.9195
-11.565
-12.2226
-12.8945
-13.5811
-14.2811
-14.9537
-15.4924
-15.733
-15.6047
-15.2636
-14.9001
-14.5953
-14.3527
-14.1478
-13.9663
-13.7883
-13.6105
-13.459
-13.3683
-13.3733
-13.4798
-13.6622
-13.864
-14.0397
-14.2059
-14.4014
-14.6572
-14.9181
-15.0662
-15.1168
-15.2001
-15.3891
-15.6663
-15.9862
-16.3403
-16.6877
-16.8191
-16.6406
-16.3815
-16.1931
-16.051
-15.9752
-15.9104
-15.7198
-15.4241
-15.1332
-14.8889
-14.6191
-14.1769
-13.5596
-12.907
-12.3004
-11.7571
-11.2664
-10.8083
-10.3914
-10.0148
-9.67106
-9.33527
-8.97255
-8.59766
-8.25807
-7.9911
-7.81631
-7.74044
-7.76052
-7.87484
-8.06328
-8.30906
-8.61014
-8.96139
-9.36556
-9.81926
-10.3377
-10.9462
-11.611
-12.2814
-12.9525
-13.6399
-14.3618
-15.1294
-15.9094
-16.6077
-16.9721
-16.7094
-15.9101
-14.9087
-13.8641
-12.8005
-11.7288
-10.653
-9.57339
-8.4867
-7.3898
-6.28058
-5.15532
-4.00929
-2.8389
-1.64521
-0.430548
0.804334
2.05416
3.31307
4.57811
5.84745
7.11958
8.39475
9.35352
5.28919
4.41644
3.26158
2.12383
1.00778
-0.083213
-1.14305
-2.16435
-3.14334
-4.07873
-4.96801
-5.80923
-6.60352
-7.35516
-8.06654
-8.73796
-9.38203
-10.021
-10.6688
-11.3303
-12.007
-12.6989
-13.4041
-14.1206
-14.8338
-15.4571
-15.8393
-15.9345
-15.833
-15.633
-15.4133
-15.2172
-15.0442
-14.8776
-14.7112
-14.5664
-14.4787
-14.4839
-14.5858
-14.7645
-14.9686
-15.1433
-15.3028
-15.4895
-15.7336
-15.9827
-16.1248
-16.1725
-16.2495
-16.4284
-16.6972
-17.0103
-17.3507
-17.6833
-17.807
-17.6265
-17.373
-17.1932
-17.0582
-16.9868
-16.919
-16.7218
-16.4294
-16.1547
-15.925
-15.6407
-15.156
-14.5197
-13.8818
-13.2973
-12.7751
-12.3024
-11.8623
-11.4567
-11.0872
-10.7511
-10.4077
-10.0247
-9.6388
-9.30004
-9.03425
-8.8562
-8.77216
-8.77708
-8.87013
-9.03394
-9.25047
-9.52192
-9.83964
-10.2033
-10.6213
-11.1065
-11.6756
-12.2973
-12.9172
-13.5362
-14.1849
-14.8748
-15.6113
-16.3193
-16.7498
-16.6312
-15.9936
-15.1196
-14.1718
-13.1677
-12.1255
-11.0645
-9.99575
-8.92336
-7.8462
-6.76193
-5.66862
-4.56368
-3.44395
-2.30484
-1.14437
0.0369605
1.24071
2.46535
3.7064
4.95906
6.21815
7.48091
8.7479
9.70047
5.8579
4.99279
3.85084
2.72766
1.62767
0.557828
-0.475562
-1.46797
-2.41866
-3.32794
-4.19208
-5.00789
-5.77694
-6.50374
-7.19109
-7.84387
-8.47974
-9.119
-9.77055
-10.4367
-11.1186
-11.8157
-12.5261
-13.2469
-13.9722
-14.6926
-15.3552
-15.8943
-16.2492
-16.3841
-16.3701
-16.273
-16.126
-15.9696
-15.8133
-15.6743
-15.5894
-15.595
-15.6928
-15.8675
-16.0723
-16.2469
-16.4018
-16.5806
-16.814
-17.0532
-17.1905
-17.2356
-17.3071
-17.4761
-17.7355
-18.0428
-18.3725
-18.6874
-18.7991
-18.6219
-18.3779
-18.2049
-18.0769
-18.0104
-17.9387
-17.7343
-17.4464
-17.1876
-16.9665
-16.6554
-16.1282
-15.486
-14.8675
-14.3055
-13.8051
-13.3467
-12.9203
-12.5246
-12.1623
-11.8282
-11.4695
-11.0682
-10.6779
-10.3429
-10.079
-9.89888
-9.80936
-9.80313
-9.87709
-10.0176
-10.2081
-10.4515
-10.7413
-11.0714
-11.4538
-11.911
-12.4452
-13.0188
-13.5905
-14.1625
-14.7707
-15.4307
-16.1023
-16.5714
-16.5329
-15.9735
-15.1622
-14.2905
-13.386
-12.4315
-11.4258
-10.3851
-9.32735
-8.26261
-7.19311
-6.11798
-5.03579
-3.94497
-2.84359
-1.72897
-0.596966
0.554337
1.72469
2.9159
4.12999
5.36484
6.61224
7.86566
9.12335
10.068
6.4335
5.57702
4.44873
3.3414
2.2612
1.21619
0.210717
-0.754012
-1.6786
-2.56292
-3.40181
-4.19041
-4.93268
-5.63545
-6.30169
-6.94085
-7.57318
-8.21486
-8.87093
-9.54228
-10.2295
-10.9319
-11.6471
-12.3717
-13.0978
-13.8155
-14.5196
-15.2136
-15.8547
-16.3826
-16.7668
-16.968
-17.0342
-17.0209
-16.9163
-16.7826
-16.7005
-16.7063
-16.8004
-16.9695
-17.1726
-17.3492
-17.5026
-17.6741
-17.8976
-18.1286
-18.2619
-18.3047
-18.3714
-18.5309
-18.7799
-19.0812
-19.4031
-19.7009
-19.7996
-19.6279
-19.394
-19.226
-19.1046
-19.0438
-18.9678
-18.7556
-18.4732
-18.23
-18.0077
-17.6604
-17.1001
-16.462
-15.8627
-15.3242
-14.8455
-14.3988
-13.9816
-13.5945
-13.24
-12.9011
-12.5204
-12.1049
-11.7161
-11.3865
-11.1265
-10.946
-10.8519
-10.8368
-10.895
-11.0141
-11.1816
-11.3985
-11.6598
-11.9614
-12.3122
-12.7394
-13.2379
-13.764
-14.2916
-14.8239
-15.3948
-15.9895
-16.4298
-16.4323
-15.9255
-15.1443
-14.3002
-13.4417
-12.5633
-11.6509
-10.6899
-9.68186
-8.64367
-7.5903
-6.52866
-5.46149
-4.38871
-3.30916
-2.22153
-1.12414
-0.0133427
1.11372
2.25686
3.41648
4.59746
5.8049
7.03383
8.27502
9.52211
10.4587
7.00948
6.1657
5.05333
3.96501
2.90901
1.89016
0.912521
-0.024273
-0.924316
-1.78378
-2.59435
-3.35488
-4.07204
-4.75261
-5.40154
-6.03227
-6.66399
-7.3088
-7.96995
-8.64702
-9.33982
-10.0474
-10.7669
-11.4937
-12.2186
-12.9327
-13.6364
-14.3346
-15.027
-15.7043
-16.3238
-16.8373
-17.265
-17.5695
-17.6858
-17.7152
-17.7529
-17.8097
-17.9086
-18.0707
-18.2703
-18.4508
-18.605
-18.7697
-18.9839
-19.2079
-19.3382
-19.379
-19.4413
-19.5922
-19.83
-20.1239
-20.4402
-20.7245
-20.8118
-20.645
-20.4197
-20.2551
-20.1399
-20.0853
-20.0051
-19.7852
-19.5086
-19.2803
-19.0451
-18.6534
-18.0733
-17.4477
-16.8671
-16.3514
-15.8912
-15.4554
-15.0455
-14.6657
-14.3168
-13.9663
-13.5633
-13.1392
-12.7537
-12.4299
-12.1759
-11.9965
-11.8972
-11.8724
-11.9161
-12.0167
-12.1629
-12.3542
-12.5879
-12.8654
-13.1917
-13.5867
-14.0447
-14.5263
-15.0152
-15.5166
-16.0133
-16.3646
-16.3348
-15.849
-15.0935
-14.2692
-13.4326
-12.5836
-11.7199
-10.8345
-9.9135
-8.94617
-7.9376
-6.9028
-5.85263
-4.79371
-3.7291
-2.65899
-1.58286
-0.49867
0.596388
1.70482
2.82811
3.96581
5.11978
6.29588
7.4957
8.71528
9.94778
10.876
7.59124
6.7604
5.66699
4.60208
3.57227
2.58147
1.63154
0.72042
-0.154428
-0.986777
-1.7681
-2.50172
-3.19668
-3.85824
-4.49397
-5.12037
-5.75371
-6.4024
-7.0686
-7.75126
-8.44937
-9.16154
-9.884
-10.6104
-11.3323
-12.0452
-12.7516
-13.454
-14.1469
-14.8173
-15.458
-16.0728
-16.6636
-17.1868
-17.5995
-17.9415
-18.2262
-18.4338
-18.6159
-18.8355
-19.0905
-19.3421
-19.5789
-19.8147
-20.0571
-20.2746
-20.405
-20.4538
-20.516
-20.6591
-20.8852
-21.169
-21.4798
-21.7552
-21.8339
-21.6716
-21.4535
-21.2912
-21.1817
-21.1332
-21.049
-20.8225
-20.552
-20.3374
-20.0831
-19.6439
-19.0506
-18.4412
-17.8808
-17.3857
-16.9389
-16.5142
-16.1116
-15.7384
-15.3895
-15.0192
-14.5979
-14.1717
-13.7904
-13.4733
-13.2263
-13.0476
-12.942
-12.907
-12.9367
-13.0213
-13.1478
-13.3164
-13.5267
-13.7815
-14.0857
-14.4497
-14.869
-15.3138
-15.77
-16.1833
-16.4022
-16.2678
-15.7545
-15.0127
-14.207
-13.3898
-12.5607
-11.7196
-10.8656
-9.99561
-9.10257
-8.17375
-7.20156
-6.19359
-5.16155
-4.114
-3.05793
-1.99626
-0.929576
0.143252
1.22502
2.3184
3.42536
4.54645
5.68203
6.83483
8.00714
9.19889
10.4087
11.3241
8.185
7.36645
6.29444
5.25539
4.25289
3.29089
2.36758
1.48096
0.633233
-0.17029
-0.924208
-1.63396
-2.30894
-2.95409
-3.58049
-4.20574
-4.84237
-5.49574
-6.167
-6.85501
-7.55814
-8.2737
-8.99684
-9.72103
-10.4407
-11.1547
-11.8652
-12.571
-13.2613
-13.9214
-14.5484
-15.1486
-15.7247
-16.2775
-16.7996
-17.2788
-17.698
-18.0526
-18.3801
-18.7245
-19.0965
-19.4864
-19.8888
-20.2737
-20.5764
-20.7849
-20.9279
-21.0241
-21.1277
-21.2926
-21.5261
-21.8099
-22.1243
-22.4196
-22.5668
-22.5323
-22.4324
-22.3239
-22.2293
-22.1846
-22.0949
-21.865
-21.6025
-21.3987
-21.1244
-20.641
-20.0356
-19.4421
-18.9036
-18.4276
-17.9902
-17.5749
-17.1797
-16.8133
-16.4594
-16.0633
-15.6262
-15.2027
-14.827
-14.517
-14.276
-14.0965
-13.9846
-13.9415
-13.9596
-14.0286
-14.1367
-14.2853
-14.4769
-14.7108
-14.9915
-15.3259
-15.713
-16.1146
-16.4388
-16.5234
-16.2436
-15.6551
-14.9088
-14.1169
-13.3167
-12.5062
-11.6843
-10.8504
-10.0043
-9.14476
-8.26875
-7.36839
-6.4321
-5.45672
-4.44959
-3.41939
-2.37488
-1.32216
-0.263782
0.7998
1.87021
2.94973
4.04115
5.14648
6.26588
7.40104
8.55391
9.72278
10.9078
11.8058
8.78989
7.98586
6.93802
5.92567
4.95125
4.01554
3.11727
2.25841
1.44009
0.665077
-0.0638921
-0.753273
-1.41022
-2.04156
-2.66231
-3.28855
-3.92968
-4.58854
-5.26509
-5.95831
-6.66585
-7.38357
-8.10588
-8.82788
-9.54686
-10.2634
-10.9782
-11.6857
-12.3694
-13.0152
-13.6269
-14.212
-14.7719
-15.3044
-15.7997
-16.2512
-16.6672
-17.0647
-17.4612
-17.8714
-18.3057
-18.7686
-19.2592
-19.7149
-20.0314
-20.2263
-20.3895
-20.5534
-20.7337
-20.9521
-21.2157
-21.5164
-21.8477
-22.1901
-22.4818
-22.6994
-22.8511
-22.9203
-22.952
-23.0103
-23.0208
-22.8797
-22.659
-22.4563
-22.1549
-21.638
-21.0276
-20.4509
-19.9348
-19.4762
-19.0465
-18.6377
-18.2493
-17.8872
-17.5215
-17.099
-16.6506
-16.2326
-15.8633
-15.559
-15.3215
-15.1419
-15.0258
-14.9772
-14.9857
-15.0393
-15.1304
-15.2594
-15.432
-15.6491
-15.9101
-16.217
-16.5215
-16.7074
-16.6358
-16.2242
-15.5575
-14.7925
-14.0075
-13.2187
-12.4234
-11.6189
-10.8036
-9.97661
-9.13797
-8.2872
-7.42268
-6.54052
-5.63243
-4.68993
-3.71235
-2.70556
-1.67744
-0.635931
0.413816
1.46946
2.53058
3.59817
4.67483
5.76414
6.86734
7.98515
9.11999
10.2715
11.4374
12.3189
9.40526
8.61985
7.59757
6.61201
5.66542
4.75507
3.88284
3.05396
2.26555
1.51726
0.810474
0.139967
-0.50079
-1.12262
-1.74138
-2.37025
-3.01654
-3.68099
-4.36273
-5.06073
-5.77134
-6.48964
-7.21099
-7.93216
-8.65244
-9.3727
-10.0903
-10.7946
-11.4665
-12.0956
-12.6918
-13.2622
-13.8052
-14.3158
-14.7851
-15.2128
-15.6127
-16.0027
-16.4
-16.8157
-17.2565
-17.7268
-18.2254
-18.6722
-18.9608
-19.1401
-19.3125
-19.506
-19.7245
-19.9721
-20.2541
-20.5684
-20.9119
-21.2786
-21.644
-21.991
-22.3052
-22.5737
-22.8243
-23.0885
-23.3206
-23.4192
-23.3814
-23.2851
-23.0594
-22.6041
-22.0259
-21.4678
-20.9733
-20.529
-20.1065
-19.7025
-19.3202
-18.9557
-18.5681
-18.1245
-17.6743
-17.2624
-16.8981
-16.598
-16.3627
-16.1849
-16.0672
-16.0129
-16.0124
-16.0529
-16.1289
-16.2391
-16.3912
-16.5926
-16.8104
-16.9714
-16.9648
-16.6894
-16.1518
-15.4418
-14.6684
-13.8892
-13.1056
-12.3186
-11.5272
-10.728
-9.91879
-9.09871
-8.26733
-7.42434
-6.56889
-5.69885
-4.80977
-3.89431
-2.94694
-1.96808
-0.961904
0.0644924
1.10373
2.15108
3.20404
4.26223
5.32698
6.40138
7.48874
8.59008
9.7068
10.8407
11.9899
12.8584
10.0338
9.26876
8.27216
7.31429
6.39514
5.51161
4.66865
3.86868
3.10702
2.38325
1.6973
1.0447
0.416981
-0.199575
-0.818835
-1.4512
-2.10238
-2.77232
-3.45954
-4.16182
-4.87423
-5.59238
-6.31305
-7.03434
-7.75701
-8.48126
-9.1988
-9.89227
-10.5465
-11.1602
-11.7437
-12.3005
-12.8251
-13.3122
-13.7579
-14.1669
-14.5553
-14.9404
-15.3385
-15.7607
-16.2098
-16.6885
-17.1932
-17.6274
-17.8882
-18.0532
-18.2248
-18.4191
-18.64
-18.8908
-19.1756
-19.4947
-19.8424
-20.2092
-20.5767
-20.9304
-21.2745
-21.622
-21.9811
-22.351
-22.7132
-23.0202
-23.2338
-23.3551
-23.3453
-23.1324
-22.7691
-22.3806
-21.9933
-21.5837
-21.1684
-20.7692
-20.3927
-20.0208
-19.6042
-19.144
-18.6977
-18.2903
-17.9309
-17.6356
-17.4023
-17.2266
-17.1078
-17.0472
-17.0385
-17.0686
-17.1319
-17.2263
-17.34
-17.4235
-17.3927
-17.1609
-16.6926
-16.0395
-15.2967
-14.5316
-13.7614
-12.9851
-12.2032
-11.4177
-10.6286
-9.83373
-9.03043
-8.21691
-7.39224
-6.5562
-5.70846
-4.84791
-3.97199
-3.07587
-2.1539
-1.20318
-0.223498
0.782334
1.80721
2.8442
3.88892
4.9391
5.99471
7.05763
8.13112
9.21743
10.3177
11.4335
12.565
13.421
10.6831
9.93665
8.96754
8.03848
7.14591
6.28974
5.47538
4.7007
3.96246
3.26166
2.5959
1.95886
1.3401
0.726326
0.105703
-0.530874
-1.18764
-1.86336
-2.55548
-3.26071
-3.97446
-4.69315
-5.41394
-6.1361
-6.86134
-7.58737
-8.29902
-8.97581
-9.61134
-10.2123
-10.7856
-11.3289
-11.8332
-12.2957
-12.7199
-13.1143
-13.4956
-13.8791
-14.279
-14.707
-15.1649
-15.6526
-16.1584
-16.5742
-16.8105
-16.9647
-17.1348
-17.3297
-17.5538
-17.8082
-18.0961
-18.42
-18.7724
-19.1405
-19.5108
-19.8715
-20.224
-20.5798
-20.9455
-21.3187
-21.6915
-22.0499
-22.3554
-22.5726
-22.7045
-22.7495
-22.7257
-22.6669
-22.5338
-22.302
-22.0368
-21.762
-21.4503
-21.0794
-20.6336
-20.1609
-19.7189
-19.3149
-18.9621
-18.6726
-18.4408
-18.266
-18.1468
-18.0813
-18.0647
-18.0857
-18.1034
-18.0669
-17.9598
-17.7092
-17.2494
-16.6241
-15.9014
-15.1437
-14.3835
-13.6203
-12.8529
-12.0796
-11.3002
-10.5162
-9.72871
-8.93711
-8.1388
-7.3312
-6.51294
-5.6836
-4.84316
-3.99103
-3.1255
-2.24358
-1.34062
-0.412951
0.541
1.52212
2.52757
3.55056
4.58512
5.62715
6.67477
7.72854
8.79055
9.86338
10.9489
12.0486
13.1631
14.006
11.3582
10.6321
9.69098
8.78749
7.91952
7.08974
6.29965
5.54683
4.83079
4.1513
3.50385
2.87978
2.26756
1.65522
1.03196
0.38998
-0.272875
-0.954243
-1.65037
-2.35734
-3.07212
-3.7916
-4.51304
-5.23694
-5.96445
-6.68764
-7.38606
-8.04506
-8.66633
-9.25688
-9.8195
-10.3467
-10.8288
-11.268
-11.6732
-12.0557
-12.432
-12.817
-13.2216
-13.6556
-14.1223
-14.6182
-15.1171
-15.5082
-15.7256
-15.874
-16.0423
-16.2384
-16.4657
-16.724
-17.0159
-17.3444
-17.7023
-18.0743
-18.4484
-18.816
-19.1766
-19.5397
-19.9105
-20.2848
-20.6527
-20.995
-21.274
-21.4708
-21.6186
-21.7535
-21.8858
-22.0116
-22.1016
-22.1431
-22.1692
-22.1557
-22.0328
-21.7844
-21.4416
-21.074
-20.71
-20.3363
-19.9915
-19.707
-19.478
-19.3041
-19.1608
-19.0189
-18.887
-18.7744
-18.6037
-18.2743
-17.803
-17.2124
-16.5043
-15.7465
-14.9873
-14.2294
-13.4702
-12.7083
-11.9429
-11.1726
-10.3962
-9.61422
-8.8282
-8.03876
-7.24418
-6.44182
-5.62973
-4.80705
-3.97368
-3.12922
-2.27252
-1.40171
-0.513712
0.395402
1.32825
2.28585
3.26839
4.27319
5.29457
6.32677
7.36624
8.41188
9.46412
10.5248
11.5967
12.682
13.7816
14.613
12.0589
11.3545
10.4385
9.55702
8.71175
7.90573
7.13769
6.40597
5.71111
5.05138
4.42028
3.80675
3.19905
2.58635
1.95883
1.3111
0.642904
-0.0433996
-0.743172
-1.45212
-2.16813
-2.88795
-3.60978
-4.33523
-5.06259
-5.77757
-6.45984
-7.10369
-7.71424
-8.29483
-8.84403
-9.3517
-9.81127
-10.2303
-10.6203
-10.9933
-11.3658
-11.7534
-12.1652
-12.6072
-13.0829
-13.5869
-14.0749
-14.4369
-14.6374
-14.7821
-14.9485
-15.1462
-15.3764
-15.6384
-15.9352
-16.2681
-16.6303
-17.008
-17.3879
-17.7621
-18.1308
-18.5003
-18.8744
-19.2473
-19.6061
-19.9291
-20.1841
-20.3663
-20.5102
-20.6442
-20.777
-20.919
-21.0753
-21.2409
-21.4116
-21.5559
-21.6265
-21.6039
-21.5
-21.3536
-21.1605
-20.8991
-20.6209
-20.359
-20.1095
-19.8852
-19.6477
-19.3421
-18.9929
-18.6279
-18.2015
-17.66
-17.0206
-16.3236
-15.5889
-14.8344
-14.0746
-13.3157
-12.5566
-11.7956
-11.0319
-10.2642
-9.49086
-8.71142
-7.92715
-7.13926
-6.34744
-5.54949
-4.74298
-3.92651
-3.09964
-2.26209
-1.41315
-0.551507
0.324643
1.21811
2.13274
3.07038
4.03094
5.01467
6.0194
7.03917
8.06877
9.10616
10.1503
11.2012
12.2608
13.3321
14.4174
15.2386
12.7836
12.0974
11.2039
10.344
9.52053
8.73615
7.98925
7.2781
6.6034
5.96229
5.34517
4.73931
4.13384
3.51926
2.88677
2.23286
1.55917
0.868798
0.166095
-0.545248
-1.26256
-1.98273
-2.70537
-3.43127
-4.15376
-4.8561
-5.52386
-6.156
-6.75622
-7.32441
-7.85656
-8.3437
-8.78324
-9.18535
-9.56261
-9.92896
-10.2998
-10.6902
-11.1099
-11.5614
-12.0456
-12.5576
-13.0352
-13.3667
-13.5487
-13.6894
-13.8537
-14.053
-14.286
-14.5514
-14.854
-15.192
-15.5569
-15.9396
-16.3268
-16.7088
-17.0855
-17.4609
-17.8369
-18.2054
-18.5511
-18.8531
-19.0886
-19.2606
-19.4014
-19.5345
-19.6679
-19.8117
-19.9697
-20.1358
-20.3061
-20.4684
-20.6038
-20.6885
-20.7069
-20.6732
-20.5962
-20.476
-20.3211
-20.1032
-19.8102
-19.486
-19.1343
-18.7272
-18.2768
-17.7953
-17.2702
-16.6952
-16.0691
-15.3916
-14.6707
-13.9225
-13.1634
-12.4031
-11.6432
-10.8827
-10.1202
-9.3545
-8.58398
-7.80751
-7.02545
-6.23908
-5.44927
-4.65478
-3.85321
-3.04253
-2.2217
-1.39067
-0.54901
0.304382
1.17096
2.05251
2.95177
3.87182
4.81329
5.77622
6.7614
7.76568
8.78322
9.81069
10.8466
11.8896
12.9397
13.9987
15.0695
15.8799
13.5289
12.8583
11.9852
11.1462
10.3451
9.58165
8.85402
8.16247
7.50772
6.88366
6.27748
5.67654
5.07135
4.45357
3.81536
3.15488
2.47553
1.78138
1.07617
0.362922
-0.355175
-1.07595
-1.79951
-2.52336
-3.23697
-3.92532
-4.58001
-5.20224
-5.79239
-6.34585
-6.85809
-7.32477
-7.74701
-8.13462
-8.5011
-8.86312
-9.23506
-9.62932
-10.0567
-10.5182
-11.0101
-11.5278
-11.9945
-12.2953
-12.4582
-12.5951
-12.7579
-12.9585
-13.1947
-13.4645
-13.7738
-14.1179
-14.4857
-14.8717
-15.2658
-15.6563
-16.0407
-16.4216
-16.798
-17.1592
-17.4889
-17.7705
-17.9896
-18.1542
-18.2925
-18.4247
-18.5586
-18.7044
-18.8641
-19.031
-19.2009
-19.3618
-19.4944
-19.5765
-19.595
-19.5638
-19.5091
-19.4477
-19.3585
-19.1718
-18.8646
-18.4957
-18.1044
-17.6894
-17.2491
-16.7797
-16.271
-15.7148
-15.1086
-14.4522
-13.7485
-13.0095
-12.2529
-11.4914
-10.7303
-9.96964
-9.20797
-8.44377
-7.67576
-6.90235
-6.12287
-5.33832
-4.55004
-3.75802
-2.96054
-2.15532
-1.34052
-0.515632
0.319339
1.16511
2.02312
2.89487
3.78196
4.68701
5.61192
6.55659
7.52194
8.5083
9.51163
10.5274
11.5534
12.5879
13.6301
14.6795
15.7378
16.537
14.2918
13.6363
12.7822
11.9639
11.1841
10.4404
9.73146
9.05936
8.42357
7.81386
7.21571
6.61725
6.01052
5.38815
4.74374
4.07708
3.39252
2.69475
1.98721
1.27256
0.55377
-0.167686
-0.890871
-1.6097
-2.31261
-2.9876
-3.62979
-4.24242
-4.82227
-5.35957
-5.85102
-6.29735
-6.70281
-7.07735
-7.436
-7.79586
-8.17066
-8.57098
-9.00593
-9.47733
-9.97792
-10.4975
-10.9478
-11.219
-11.3653
-11.4994
-11.6618
-11.8635
-12.1031
-12.3794
-12.696
-13.0461
-13.4183
-13.8081
-14.2079
-14.6057
-14.9963
-15.3808
-15.7551
-16.1062
-16.4199
-16.6832
-16.8887
-17.0473
-17.1837
-17.315
-17.4494
-17.5969
-17.7584
-17.9263
-18.0957
-18.255
-18.3849
-18.4644
-18.4829
-18.454
-18.4021
-18.3437
-18.2626
-18.0914
-17.7972
-17.4365
-17.0534
-16.6476
-16.217
-15.7589
-15.2655
-14.7272
-14.1395
-13.5037
-12.82
-12.0944
-11.3429
-10.5813
-9.81855
-9.05676
-8.29532
-7.5324
-6.76638
-5.99582
-5.21931
-4.43697
-3.65019
-2.8599
-2.06552
-1.26503
-0.455952
0.363097
1.19208
2.03114
2.88139
3.74408
4.62052
5.51283
6.42333
7.35249
8.30026
9.26809
10.2552
11.2578
12.2725
13.2973
14.3308
15.3719
16.4204
17.2107
15.0712
14.4292
13.5951
12.798
12.0371
11.3116
10.6219
9.96886
9.34948
8.75087
8.15804
7.56051
6.9512
6.32318
5.67194
4.99918
4.31005
3.60914
2.89947
2.1837
1.46409
0.742085
0.0212223
-0.690386
-1.38159
-2.04334
-2.67419
-3.27757
-3.84539
-4.36456
-4.83573
-5.2635
-5.65247
-6.01425
-6.36679
-6.72642
-7.1059
-7.51472
-7.9581
-8.43788
-8.94751
-9.46419
-9.89032
-10.1357
-10.2712
-10.4032
-10.5657
-10.769
-11.0128
-11.2957
-11.6184
-11.9741
-12.353
-12.7487
-13.1533
-13.5569
-13.9526
-14.3374
-14.705
-15.0443
-15.3439
-15.5927
-15.7869
-15.94
-16.0748
-16.2054
-16.3402
-16.4892
-16.6521
-16.8213
-16.9902
-17.1476
-17.2752
-17.3525
-17.3709
-17.3443
-17.2952
-17.2394
-17.1654
-17.0084
-16.7276
-16.3755
-15.9997
-15.6022
-15.1809
-14.7335
-14.2542
-13.7326
-13.1626
-12.5463
-11.8837
-11.1754
-10.4328
-9.67305
-8.90873
-8.14515
-7.38302
-6.62069
-5.85626
-5.0883
-4.31487
-3.53497
-2.74982
-1.961
-1.16879
-0.3719
0.432008
1.24513
2.06824
2.90119
3.74439
4.59897
5.46624
6.34766
7.24527
8.16058
9.09336
10.0442
11.0142
12.0019
13.0043
14.0185
15.0423
16.0744
17.1144
17.8983
15.8646
15.2363
14.4235
13.6463
12.9032
12.196
11.525
10.8889
10.2831
9.69345
9.10424
8.50617
7.8928
7.25773
6.59928
5.92111
5.22811
4.52421
3.81259
3.09579
2.37532
1.65393
0.937733
0.23497
-0.444177
-1.09357
-1.71438
-2.30698
-2.85972
-3.36018
-3.81243
-4.22313
-4.59727
-4.94814
-5.29548
-5.65563
-6.041
-6.45991
-6.91332
-7.40047
-7.91676
-8.42575
-8.82388
-9.04784
-9.17663
-9.30629
-9.46951
-9.67555
-9.92374
-10.2118
-10.5391
-10.9006
-11.2876
-11.691
-12.1009
-12.5091
-12.9093
-13.2921
-13.6488
-13.9747
-14.2618
-14.499
-14.6839
-14.8323
-14.966
-15.0959
-15.2312
-15.3816
-15.5456
-15.7159
-15.8845
-16.04
-16.1655
-16.2406
-16.259
-16.2347
-16.1885
-16.135
-16.0668
-15.9224
-15.6552
-15.3122
-14.9433
-14.5536
-14.1414
-13.7038
-13.2364
-12.7308
-12.1789
-11.5807
-10.9382
-10.2498
-9.52052
-8.76572
-8.00127
-7.2359
-6.47208
-5.70918
-4.94575
-4.17996
-3.4093
-2.63219
-1.84908
-1.06158
-0.270857
0.52341
1.32311
2.13078
2.94793
3.77473
4.61138
5.45867
6.31783
7.18989
8.07625
8.97883
9.89822
10.8343
11.7881
12.76
13.7485
14.751
15.7646
16.7873
17.8183
18.5958
16.6694
16.0576
15.2649
14.5063
13.7826
13.0941
12.4391
11.8178
11.224
10.6414
10.0538
9.45304
8.83385
8.19122
7.52598
6.84291
6.14644
5.43986
4.72638
4.0085
3.28794
2.56916
1.85917
1.16621
0.499233
-0.139282
-0.750229
-1.32882
-1.86326
-2.3455
-2.78048
-3.17499
-3.53678
-3.88066
-4.22547
-4.58726
-4.97822
-5.40608
-5.87062
-6.36735
-6.88838
-7.38542
-7.75416
-7.95715
-8.07951
-8.20722
-8.37246
-8.58274
-8.83523
-9.1283
-9.4613
-9.82832
-10.2221
-10.6331
-11.0494
-11.4625
-11.8651
-12.2433
-12.588
-12.9004
-13.1755
-13.4021
-13.5793
-13.7244
-13.8573
-13.9866
-14.1226
-14.2743
-14.4389
-14.6101
-14.7785
-14.9323
-15.0557
-15.1289
-15.147
-15.1249
-15.0818
-15.0306
-14.9668
-14.8331
-14.5792
-14.2456
-13.8837
-13.5019
-13.0985
-12.6706
-12.2145
-11.7239
-11.1897
-10.6088
-9.98489
-9.31682
-8.60402
-7.85779
-7.09536
-6.32875
-5.56279
-4.79852
-4.03511
-3.27076
-2.5026
-1.72839
-0.947807
-0.161871
0.627703
1.42023
2.2169
3.01992
3.83133
4.65211
5.48264
6.32343
7.17507
8.03846
8.91489
9.80599
10.7129
11.636
12.5754
13.5319
14.5058
15.4953
16.4978
17.5106
18.5321
19.3024
17.4887
16.8934
16.1194
15.3792
14.6753
14.0035
13.3623
12.7549
12.1722
11.5939
11.0054
10.4003
9.77447
9.12445
8.45254
7.7646
7.06485
6.35597
5.64105
4.9225
4.20304
3.48859
2.78636
2.10434
1.44885
0.81998
0.219773
-0.342574
-0.857219
-1.32178
-1.74151
-2.12174
-2.47205
-2.81044
-3.15565
-3.52174
-3.91908
-4.35433
-4.82894
-5.33657
-5.86111
-6.34211
-6.68025
-6.86231
-6.97874
-7.10596
-7.27405
-7.4891
-7.74697
-8.04719
-8.3876
-8.76033
-9.15898
-9.57543
-9.99773
-10.4154
-10.8175
-11.1886
-11.5225
-11.8229
-12.0861
-12.303
-12.4739
-12.6163
-12.7486
-12.8778
-13.0144
-13.1672
-13.3323
-13.5041
-13.6724
-13.8246
-13.946
-14.0173
-14.035
-14.015
-13.9748
-13.9261
-13.8649
-13.7394
-13.4988
-13.176
-12.8218
-12.4475
-12.0524
-11.6341
-11.1891
-10.7123
-10.1951
-9.63143
-9.02472
-8.37553
-7.68104
-6.94741
-6.18985
-5.4232
-4.65548
-3.8894
-3.12498
-2.36101
-1.59487
-0.823398
-0.0455953
0.73811
1.52645
2.31792
3.11243
3.91167
4.71802
5.5331
6.35771
7.19228
8.03698
8.89254
9.76023
10.6411
11.5366
12.4477
13.3743
14.3168
15.276
16.252
17.2425
18.2445
19.2563
20.0197
18.3276
17.7456
16.9901
16.2674
15.5792
14.9213
14.2944
13.7011
13.1265
12.5495
11.9582
11.3475
10.7139
10.0563
9.37869
8.68675
7.98384
7.2727
6.55667
5.83812
5.12101
4.41241
3.71952
3.04886
2.4036
1.78434
1.197
0.652686
0.157914
-0.290544
-0.697203
-1.06463
-1.40414
-1.73724
-2.08364
-2.45613
-2.8623
-3.30647
-3.78994
-4.30567
-4.8286
-5.28835
-5.59811
-5.764
-5.8763
-6.00423
-6.17539
-6.39446
-6.65839
-6.96733
-7.31582
-7.69512
-8.09938
-8.52051
-8.94698
-9.36721
-9.76619
-10.1285
-10.4525
-10.7418
-10.9939
-11.2024
-11.368
-11.5083
-11.6401
-11.7693
-11.9068
-12.0605
-12.226
-12.3982
-12.566
-12.7165
-12.8359
-12.9057
-12.9233
-12.9048
-12.8673
-12.8208
-12.7614
-12.6426
-12.4153
-12.1041
-11.7578
-11.3907
-11.003
-10.5937
-10.1591
-9.69479
-9.19341
-8.64704
-8.05647
-7.42492
-6.75021
-6.03295
-5.28387
-4.51918
-3.75045
-2.98221
-2.216
-1.45132
-0.686191
0.0826835
0.857671
1.63883
2.42533
3.21571
4.00891
4.80562
5.60779
6.41755
7.23642
8.06483
8.90292
9.75139
10.6113
11.4832
12.3685
13.2684
14.183
15.1127
16.0585
17.0209
17.9984
18.9888
19.9906
20.7473
19.1828
18.6134
17.8758
17.1691
16.4929
15.8474
15.2359
14.6549
14.0846
13.5062
12.9112
12.2937
11.6515
10.9869
10.3046
9.60891
8.90298
8.1901
7.47319
6.75558
6.04272
5.34143
4.65785
3.99703
3.36141
2.75359
2.18257
1.65855
1.18225
0.747282
0.353067
-0.00146
-0.33259
-0.662578
-1.01023
-1.38941
-1.80604
-2.26229
-2.75624
-3.27729
-3.79021
-4.22236
-4.50823
-4.66428
-4.77402
-4.90334
-5.07766
-5.3003
-5.56997
-5.88638
-6.24256
-6.62948
-7.04076
-7.4681
-7.89836
-8.31794
-8.71095
-9.06404
-9.37819
-9.65754
-9.9
-10.1006
-10.2617
-10.4003
-10.5316
-10.6612
-10.7997
-10.9544
-11.1202
-11.2924
-11.4596
-11.6082
-11.7255
-11.7941
-11.8117
-11.7946
-11.7593
-11.7148
-11.6569
-11.5443
-11.3301
-11.0304
-10.6913
-10.3309
-9.95069
-9.55002
-9.12547
-8.67286
-8.18573
-7.65574
-7.08092
-6.46618
-5.81126
-5.11264
-4.37603
-3.61607
-2.84731
-2.07708
-1.30841
-0.542283
0.222904
0.98996
1.76213
2.54055
3.32465
4.11352
4.90579
5.70092
6.4999
7.30504
8.11854
8.94119
9.77325
10.6152
11.4677
12.3313
13.2072
14.0969
15.0005
15.9185
16.8521
17.8015
18.7659
19.7437
20.7345
21.4839
20.0493
19.4934
18.7719
18.0803
17.417
16.7837
16.1852
15.6133
15.045
14.4639
13.8636
13.2388
12.5886
11.9174
11.2303
10.5307
9.82213
9.10815
8.39117
7.67568
6.96847
6.27554
5.60123
4.94958
4.32375
3.72873
3.17584
2.6728
2.21401
1.79153
1.40968
1.0676
0.742529
0.412176
0.061431
-0.323951
-0.750686
-1.21974
-1.72527
-2.25054
-2.74942
-3.15215
-3.41594
-3.56401
-3.67231
-3.80348
-3.98043
-4.20709
-4.48336
-4.80636
-5.16903
-5.56318
-5.98147
-6.41544
-6.84902
-7.26546
-7.65095
-7.99565
-8.30099
-8.57148
-8.80536
-8.99844
-9.15536
-9.29227
-9.42309
-9.55327
-9.6929
-9.8487
-10.0151
-10.1871
-10.3533
-10.5
-10.6149
-10.6826
-10.7004
-10.6847
-10.6514
-10.6085
-10.5517
-10.4442
-10.2426
-9.95459
-9.62242
-9.26857
-8.89579
-8.50316
-8.08796
-7.64632
-7.17257
-6.65852
-6.09999
-5.50079
-4.86361
-4.18489
-3.46467
-2.71325
-1.94595
-1.1739
-0.402536
0.365687
1.13169
1.89796
2.66766
3.4432
4.2248
5.01179
5.80282
6.59676
7.39375
8.19528
9.00379
9.82102
10.6474
11.4831
12.3286
13.1848
14.0523
14.9324
15.8258
16.7329
17.6552
18.5927
19.5446
20.5099
21.4887
22.2295
20.9266
20.3828
19.677
19
18.3504
17.73
17.142
16.576
16.0084
15.4232
14.8155
14.1825
13.5247
12.8472
12.1551
11.4522
10.7419
10.0273
9.31113
8.59914
7.89824
7.21368
6.54901
5.90801
5.29289
4.71174
4.17812
3.6944
3.25156
2.84211
2.47195
2.13976
1.81905
1.48632
1.12969
0.737115
0.300627
-0.17969
-0.694427
-1.22093
-1.70542
-2.08144
-2.32304
-2.46275
-2.57063
-2.70298
-2.88221
-3.11447
-3.39923
-3.73046
-4.10014
-4.50065
-4.9248
-5.36327
-5.79707
-6.20858
-6.58687
-6.92399
-7.22094
-7.48295
-7.70911
-7.89572
-8.04882
-8.1841
-8.31446
-8.44526
-8.58611
-8.74326
-8.91043
-9.08194
-9.24724
-9.39182
-9.50437
-9.57123
-9.58944
-9.57514
-9.5436
-9.50223
-9.44616
-9.34314
-9.15281
-8.87586
-8.55094
-8.20371
-7.83796
-7.45286
-7.04639
-6.61505
-6.15364
-5.65478
-5.1128
-4.52867
-3.90762
-3.24855
-2.54734
-1.80898
-1.04617
-0.273241
0.500731
1.2721
2.03979
2.80588
3.57374
4.34655
5.12564
5.91055
6.70012
7.493
8.28877
9.08778
9.89204
10.7042
11.525
12.3548
13.1939
14.0431
14.9031
15.7745
16.6583
17.5552
18.4665
19.3926
20.3329
21.2869
22.254
22.9856
21.8148
21.2812
20.5914
19.9282
19.2905
18.6838
18.1065
17.5432
16.9733
16.3823
15.766
15.1242
14.4589
13.7756
13.0792
12.3735
11.6623
10.9476
10.2334
9.52633
8.83244
8.15563
7.50074
6.87157
6.26855
5.70343
5.19044
4.72433
4.29397
3.89623
3.53723
3.21243
2.89498
2.56039
2.1966
1.79442
1.34641
0.854837
0.333883
-0.187115
-0.653308
-1.0052
-1.22682
-1.35971
-1.46798
-1.6004
-1.78257
-2.02263
-2.31709
-2.65738
-3.03518
-3.44312
-3.87342
-4.3136
-4.74348
-5.14877
-5.52026
-5.84929
-6.13753
-6.39144
-6.61064
-6.7919
-6.94172
-7.07544
-7.20537
-7.3369
-7.4792
-7.63788
-7.80586
-7.9769
-8.14113
-8.28358
-8.39377
-8.45995
-8.47885
-8.46591
-8.43598
-8.39606
-8.34069
-8.24135
-8.06114
-7.79504
-7.47765
-7.13679
-6.77772
-6.39984
-6.00168
-5.57985
-5.12898
-4.6433
-4.11753
-3.55005
-2.94507
-2.30378
-1.62189
-0.89997
-0.146492
0.624628
1.40103
2.17595
2.9463
3.71323
4.47999
5.25049
6.02707
6.80977
7.59776
8.38955
9.18425
9.98168
10.7829
11.5904
12.4061
13.2304
14.0636
14.9062
15.7589
16.6224
17.4975
18.3849
19.2856
20.2005
21.1298
22.0731
23.0296
23.7531
22.7124
22.1904
21.5147
20.8634
20.2377
19.6444
19.0761
18.5126
17.9368
17.3388
16.7143
16.0639
15.3917
14.7034
14.0033
13.2956
12.5837
11.8697
11.1586
10.4575
9.771
9.10255
8.45815
7.8407
7.25181
6.70549
6.21179
5.7609
5.34114
4.95378
4.60545
4.28642
3.97077
3.63504
3.26455
2.85093
2.38949
1.88618
1.36076
0.851174
0.408658
0.0792665
-0.126753
-0.255016
-0.364305
-0.497309
-0.683256
-0.931188
-1.23503
-1.58416
-1.96974
-2.3859
-2.82355
-3.2644
-3.68874
-4.08769
-4.45255
-4.77316
-5.05262
-5.29864
-5.51101
-5.68717
-5.83392
-5.96628
-6.09579
-6.22802
-6.372
-6.53236
-6.70125
-6.87191
-7.03494
-7.17521
-7.28314
-7.34866
-7.36835
-7.3568
-7.32844
-7.28997
-7.23536
-7.13868
-6.96713
-6.71243
-6.40304
-6.06779
-5.71501
-5.34425
-4.95399
-4.54099
-4.09984
-3.62606
-3.11588
-2.56569
-1.97652
-1.35136
-0.687811
0.0161061
0.755848
1.52114
2.29816
3.07603
3.84976
4.61894
5.38604
6.15484
6.92912
7.7097
8.49573
9.28621
10.0799
10.8764
11.6756
12.4793
13.2903
14.1094
14.9369
15.7733
16.6194
17.4755
18.3425
19.2212
20.1122
21.0165
21.9349
22.8676
23.814
24.5301
23.6202
23.1096
22.4451
21.805
21.1932
20.6111
20.0475
19.4819
18.8993
18.2933
17.6603
17.0018
16.3236
15.6308
14.9277
14.2186
13.5063
12.7938
12.0871
11.3926
10.714
10.0556
9.42253
8.81633
8.24303
7.71698
7.24048
6.80171
6.39228
6.01577
5.67756
5.36363
5.04784
4.70934
4.33183
3.90561
3.4303
2.91688
2.38924
1.8937
1.47689
1.16877
0.975566
0.851428
0.740736
0.60506
0.414099
0.159169
-0.152861
-0.510684
-0.904099
-1.32785
-1.77165
-2.21274
-2.63258
-3.02533
-3.38256
-3.6948
-3.96642
-4.20535
-4.41103
-4.58185
-4.72563
-4.85694
-4.98602
-5.11886
-5.26452
-5.42636
-5.59621
-5.76672
-5.92855
-6.06689
-6.17266
-6.23729
-6.25778
-6.24772
-6.2209
-6.18381
-6.13025
-6.03572
-5.87109
-5.62719
-5.32609
-4.99614
-4.64922
-4.28551
-3.90313
-3.49877
-3.06713
-2.60427
-2.10799
-1.57419
-1.00094
-0.391149
0.255305
0.940395
1.66316
2.41805
3.19233
3.97215
4.74941
5.52196
6.29106
7.05943
7.83162
8.61001
9.39406
10.183
10.9758
11.7714
12.5693
13.3704
14.1772
14.9913
15.8134
16.6442
17.4841
18.3334
19.1928
20.0632
20.9454
21.84
22.7479
23.6701
24.6061
25.3149
24.5383
24.0362
23.3824
22.7546
22.1557
21.5816
21.0192
20.4504
19.8616
19.2469
18.6046
17.9383
17.2545
16.5581
15.8527
15.1423
14.43
13.7204
13.0191
12.3315
11.6617
11.0144
10.3932
9.79929
9.24254
8.73612
8.27491
7.84582
7.44563
7.08015
6.752
6.44329
6.12595
5.78095
5.39395
4.95448
4.46577
3.94504
3.42078
2.94209
2.5482
2.25922
2.07871
1.95935
1.84728
1.70714
1.50952
1.24645
0.925993
0.559448
0.157272
-0.272807
-0.719068
-1.15878
-1.57492
-1.96105
-2.30866
-2.61224
-2.87749
-3.11082
-3.31067
-3.47628
-3.61716
-3.74755
-3.87623
-4.00974
-4.15693
-4.31975
-4.49048
-4.66103
-4.82171
-4.95859
-5.0625
-5.12597
-5.14717
-5.13865
-5.1133
-5.07746
-5.02512
-4.93285
-4.77401
-4.53957
-4.24698
-3.9231
-3.58204
-3.22484
-2.84959
-2.45336
-2.03076
-1.57737
-1.09332
-0.575473
-0.018192
0.576829
1.20695
1.87343
2.57811
3.31871
4.08531
4.86426
5.64473
6.4216
7.19409
7.9638
8.73462
9.51066
10.2928
11.08
11.8715
12.6663
13.4635
14.2631
15.0666
15.8762
16.6932
17.5187
18.3529
19.1959
20.0482
20.9109
21.7849
22.6705
23.5686
24.4802
25.4059
26.107
25.4641
24.9693
24.328
23.7126
23.1229
22.5544
21.9923
21.4191
20.8229
20.1987
19.5468
18.873
18.1841
17.4849
16.7781
16.0668
15.3557
14.6499
13.9548
13.2747
12.6145
11.9792
11.3706
10.7908
10.2521
9.76348
9.31492
8.8946
8.50252
8.14683
7.82795
7.52355
7.2037
6.85015
6.45146
5.99849
5.49763
4.97215
4.45711
3.99852
3.6239
3.35109
3.18255
3.06777
2.95451
2.8093
2.60396
2.33099
2.00071
1.62524
1.21386
0.778004
0.332107
-0.103764
-0.515765
-0.895571
-1.23302
-1.52738
-1.78635
-2.01455
-2.20935
-2.37041
-2.50867
-2.63815
-2.76645
-2.90069
-3.0494
-3.21294
-3.38447
-3.55508
-3.71452
-3.85023
-3.95254
-4.01474
-4.03655
-4.02958
-4.0056
-3.97086
-3.9198
-3.83
-3.67675
-3.45118
-3.16695
-2.84922
-2.51388
-2.16281
-1.79375
-1.40489
-0.99108
-0.547002
-0.0741882
0.429792
0.971944
1.5514
2.16529
2.81499
3.50203
4.22526
4.97949
5.75413
6.53636
7.31729
8.09392
8.8665
9.63759
10.4119
11.1919
11.9771
12.7672
13.561
14.3576
15.1564
15.9578
16.7637
17.576
18.3963
19.2252
20.0626
20.9085
21.7641
22.6303
23.5076
24.3966
25.2982
26.2134
26.9066
26.3959
25.9101
25.2813
24.677
24.0945
23.5294
22.9666
22.3875
21.7817
21.1469
20.4861
19.8061
19.1133
18.4116
17.7037
16.9926
16.2835
15.5825
14.8944
14.223
13.5731
12.9505
12.3549
11.7897
11.2691
10.7964
10.3591
9.94864
9.56528
9.21811
8.90588
8.60316
8.28053
7.91925
7.50735
7.03973
6.5282
6.00014
5.49675
5.06008
4.7049
4.44695
4.28784
4.17614
4.06193
3.91163
3.69782
3.41454
3.07424
2.69046
2.27069
1.82812
1.38211
0.951642
0.545156
0.171499
-0.156615
-0.442132
-0.694513
-0.916937
-1.10668
-1.26403
-1.40017
-1.52875
-1.65666
-1.79164
-1.94199
-2.10633
-2.27871
-2.44941
-2.6074
-2.74184
-2.84261
-2.90353
-2.92594
-2.92051
-2.89786
-2.86414
-2.81438
-2.72728
-2.57994
-2.36315
-2.08648
-1.77364
-1.44315
-1.09796
-0.735138
-0.353589
0.0516307
0.486202
0.949383
1.44188
1.96841
2.53179
3.13088
3.76472
4.43368
5.13828
5.87765
6.64448
7.42551
8.20922
8.99015
9.76655
10.5395
11.3132
12.0911
12.8745
13.663
14.4556
15.2515
16.0498
16.85
17.6532
18.4616
19.2771
20.1009
20.933
21.7731
22.6221
23.4811
24.3506
25.2313
26.1238
27.029
27.7143
27.3352
26.8588
26.2404
25.6453
25.0698
24.5066
23.9406
23.3539
22.7373
22.0918
21.4231
20.7382
20.0425
19.3389
18.6301
17.9199
17.214
16.5188
15.8386
15.1766
14.5385
13.9287
13.3456
12.7953
12.2916
11.8328
11.4066
11.0062
10.6324
10.294
9.98661
9.68303
9.35674
8.98719
8.55977
8.07624
7.55625
7.02991
6.54075
6.12571
5.79017
5.54656
5.39442
5.28408
5.16868
5.01349
4.79108
4.49807
4.1479
3.75505
3.32779
2.87927
2.43279
2.00801
1.60831
1.242
0.922518
0.64437
0.397817
0.181209
-0.00325575
-0.157327
-0.291708
-0.419414
-0.546959
-0.682711
-0.834933
-1.00031
-1.17341
-1.34413
-1.5006
-1.63353
-1.73269
-1.79231
-1.81532
-1.81142
-1.79007
-1.75739
-1.70894
-1.62475
-1.48331
-1.27464
-1.00484
-0.696413
-0.370247
-0.0305633
0.325923
0.700298
1.09729
1.52303
1.97765
2.4588
2.97018
3.51918
4.10435
4.722
5.37333
6.06017
6.78296
7.53732
8.31306
9.09762
9.88213
10.6629
11.439
12.2132
12.9902
13.7722
14.559
15.3503
16.1453
16.943
17.7426
18.5441
19.3495
20.1608
20.9796
21.8066
22.6414
23.4845
24.3368
25.1991
26.0719
26.9559
27.8519
28.5301
28.0439
27.5739
26.9623
26.3734
25.8028
25.2405
24.671
24.0775
23.4524
22.7995
22.1258
21.4374
20.7393
20.0344
19.3254
18.6164
17.9134
17.2231
16.549
15.8943
15.2658
14.666
14.0921
13.5536
13.062
12.6124
12.194
11.8005
11.4338
11.1025
10.7988
10.494
10.1636
9.78614
9.34591
8.85072
8.32632
7.80463
7.32811
6.92832
6.6063
6.37261
6.2247
6.11461
5.99789
5.83945
5.61102
5.31104
4.95299
4.55164
4.11879
3.66761
3.2218
2.80133
2.40695
2.04684
1.73375
1.46045
1.21756
1.00494
0.824426
0.672731
0.539594
0.412512
0.285206
0.148845
-0.0049195
-0.171217
-0.344635
-0.515255
-0.670683
-0.802392
-0.900249
-0.958898
-0.982359
-0.97957
-0.959183
-0.927303
-0.879853
-0.797885
-0.660543
-0.457288
-0.192566
0.112086
0.434924
0.770657
1.12251
1.492
1.88328
2.30271
2.75068
3.22331
3.7249
4.26369
4.83775
5.44364
6.08248
6.7565
7.46654
8.20941
8.97847
9.76209
10.5487
11.3328
12.1119
12.8874
13.6643
14.4453
15.2311
16.0213
16.8153
17.6127
18.4122
19.2129
20.0164
20.825
21.6405
22.4635
23.2945
24.1335
24.981
25.8378
26.705
27.5829
28.4723
29.1453
